Data from Subt4__38__38.txt Node

Date: Fri Jun 07 14:39:36 CEST 2024
User: Naturwissenschaft
Spectrometer: FLMS00572
Trigger mode: 0
Integration Time (sec): 5,000000E-2
Scans to average: 20
Electric dark correction enabled: true
Nonlinearity correction enabled: false
Boxcar width: 5
XAxis mode: Wavelengths
Number of Pixels in Spectrum: 2048
>>>>>Begin Spectral Data<<<<<
190,164	7,26
190,544	7,34
190,925	5,73
191,306	4,73
191,687	4,84
192,067	3,59
192,448	2,74
192,829	1,53
193,209	-0,31
193,59	-1,95
193,97	-0,45
194,351	-2,5
194,731	-2,74
195,112	-2,69
195,492	-2,72
195,872	-2,09
196,253	-0,72
196,633	-0,12
197,013	1,72
197,393	2,36
197,773	4,57
198,154	3,94
198,534	4,31
198,914	4,09
199,294	5,03
199,674	5,97
200,054	6,14
200,434	7,13
200,814	7,67
201,194	5,89
201,573	5,07
201,953	3,05
202,333	1,88
202,713	2,62
203,092	0,17
203,472	0,47
203,852	0,28
204,231	-0,15
204,611	-2,08
204,99	-2,94
205,37	-3,08
205,749	-0,15
206,129	2,68
206,508	4,1
206,887	4,22
207,267	6,55
207,646	7,98
208,025	8,94
208,405	9,13
208,784	10,35
209,163	11,05
209,542	12,41
209,921	9,85
210,3	10,05
210,679	10,91
211,058	11,16
211,437	14,52
211,816	15,37
212,195	13,96
212,574	14,48
212,952	13,27
213,331	12,66
213,71	11,69
214,089	12,12
214,467	12,34
214,846	11,97
215,225	10,83
215,603	9,12
215,982	5,6
216,36	5,95
216,739	6,04
217,117	6,18
217,495	5,59
217,874	4,35
218,252	4,78
218,63	3,03
219,009	3,22
219,387	4,31
219,765	4,14
220,143	3,38
220,521	3,72
220,899	2,09
221,277	3,84
221,655	4,34
222,033	3,91
222,411	5,56
222,789	5,63
223,167	7,57
223,545	7,99
223,923	6,72
224,301	7,64
224,678	7,54
225,056	9,07
225,434	7,79
225,811	7,4
226,189	8,19
226,566	6,43
226,944	9,84
227,321	5,94
227,699	3,67
228,076	4,88
228,454	6,71
228,831	6,29
229,208	5,22
229,586	3,59
229,963	4,1
230,34	6,67
230,717	8,02
231,094	3,69
231,471	3,9
231,848	5,39
232,225	3,84
232,602	3,3
232,979	3,32
233,356	4,22
233,733	7,21
234,11	7,55
234,487	6,15
234,864	5,2
235,24	6,56
235,617	7,19
235,994	6,02
236,37	7,86
236,747	8,4
237,124	8,78
237,5	6,74
237,877	5,87
238,253	6,49
238,63	8,5
239,006	10,66
239,382	13,11
239,759	13,93
240,135	12,42
240,511	12,53
240,887	10,76
241,264	10,94
241,64	11,87
242,016	13,92
242,392	11,67
242,768	10,8
243,144	10,32
243,52	7,74
243,896	8,84
244,272	11,93
244,648	10,76
245,023	11,58
245,399	12,35
245,775	12,2
246,151	9,14
246,526	11,15
246,902	9,02
247,278	3,9
247,653	3,02
248,029	2,05
248,404	1,75
248,78	1,79
249,155	0,62
249,53	0,28
249,906	2,2
250,281	3,75
250,656	3,79
251,032	5,94
251,407	8,91
251,782	10,08
252,157	8,19
252,532	8,89
252,907	6,86
253,282	6,86
253,657	6,95
254,032	5,47
254,407	4,29
254,782	3,87
255,157	4,28
255,532	6,25
255,907	8,94
256,281	10,41
256,656	9,16
257,031	12,03
257,405	12,63
257,78	12,49
258,155	11,37
258,529	13,91
258,904	13,34
259,278	13,84
259,652	12,88
260,027	11,18
260,401	11,95
260,775	12,24
261,15	11,87
261,524	13,11
261,898	11,16
262,272	12,29
262,646	9,8
263,021	10,22
263,395	12
263,769	10,65
264,143	9,55
264,517	7,32
264,89	6,37
265,264	3,64
265,638	2,9
266,012	5,75
266,386	4,34
266,76	0,86
267,133	1,66
267,507	-2,9
267,88	-3,19
268,254	-3,43
268,628	-3,46
269,001	-2,92
269,375	-0,05
269,748	1,35
270,121	0,97
270,495	0,92
270,868	5,36
271,241	4,07
271,615	4,89
271,988	5,85
272,361	4,82
272,734	5,05
273,107	6,53
273,48	4,83
273,853	2,12
274,226	0,33
274,599	0,59
274,972	1,57
275,345	3,56
275,718	5,25
276,091	5,65
276,464	6,71
276,836	7,11
277,209	7,62
277,582	9,15
277,954	12,2
278,327	12,64
278,7	13,76
279,072	11,74
279,445	11,04
279,817	9,42
280,189	7,68
280,562	10,21
280,934	11,58
281,306	10,71
281,679	11,02
282,051	10,84
282,423	9,95
282,795	10,89
283,167	14,43
283,539	14,94
283,911	15,35
284,283	15,02
284,655	14,47
285,027	13,64
285,399	12,26
285,771	11,63
286,143	9,07
286,515	11,21
286,886	9,88
287,258	6,67
287,63	6,47
288,001	5,84
288,373	7,56
288,745	6,21
289,116	5,82
289,488	5,53
289,859	5,01
290,23	4,51
290,602	3,67
290,973	1,88
291,344	3,67
291,716	1,26
292,087	2,11
292,458	3,19
292,829	2,63
293,2	4,15
293,571	4,3
293,942	5,35
294,313	6,48
294,684	7,38
295,055	8,92
295,426	8,53
295,797	12,24
296,168	13,28
296,539	12,67
296,909	14,25
297,28	12,29
297,651	13,76
298,021	13,21
298,392	16,42
298,763	15,36
299,133	16,3
299,503	13,94
299,874	10,59
300,244	8,13
300,615	6,27
300,985	4,41
301,355	6,34
301,726	7,89
302,096	7,72
302,466	7,29
302,836	7,79
303,206	8,36
303,576	9,26
303,946	10,97
304,316	11,5
304,686	12,85
305,056	13,48
305,426	11,14
305,796	9,21
306,166	8,11
306,535	4,53
306,905	4,11
307,275	3,94
307,644	4,53
308,014	3,82
308,383	3,93
308,753	4,11
309,122	5,09
309,492	6
309,861	6,78
310,231	8,53
310,6	9,17
310,969	9,45
311,339	8,11
311,708	7,09
312,077	6,86
312,446	6,58
312,815	6,43
313,184	4,33
313,553	4,53
313,922	5,29
314,291	4,83
314,66	6,29
315,029	5,78
315,398	6,53
315,767	8,2
316,136	8,47
316,504	11,19
316,873	11,95
317,242	11,28
317,61	10,93
317,979	11,47
318,347	9,37
318,716	7,14
319,084	7,12
319,453	7,34
319,821	7,73
320,189	9,63
320,558	7,79
320,926	6,72
321,294	8,7
321,662	8,73
322,031	8,15
322,399	11,5
322,767	14,62
323,135	15,09
323,503	14,23
323,871	14,11
324,239	12,7
324,607	11,9
324,974	14,38
325,342	15,89
325,71	16,74
326,078	14,51
326,445	14,28
326,813	12,3
327,181	11,67
327,548	12,31
327,916	12,41
328,283	11,52
328,651	12,54
329,018	8,32
329,385	7,83
329,753	7,86
330,12	9,07
330,487	7,43
330,855	8,67
331,222	8,54
331,589	8,32
331,956	7,44
332,323	7,1
332,69	7,99
333,057	10,88
333,424	8,99
333,791	9,65
334,158	7,03
334,525	7,65
334,892	6,85
335,258	5,78
335,625	6,6
335,992	5,69
336,358	5,61
336,725	2,59
337,091	2
337,458	3,12
337,824	1,12
338,191	1,87
338,557	2,07
338,924	1,48
339,29	3,83
339,656	4,22
340,023	2,9
340,389	3,89
340,755	5,93
341,121	5,84
341,487	3,14
341,853	5,18
342,219	7,53
342,585	7,51
342,951	8,27
343,317	7,78
343,683	6,85
344,049	8,74
344,415	9,89
344,78	8,93
345,146	10,87
345,512	12,75
345,877	12,32
346,243	12,06
346,608	11,72
346,974	11,7
347,339	13,56
347,705	14,86
348,07	12,7
348,436	11,77
348,801	13,11
349,166	10,38
349,531	11,4
349,897	12,13
350,262	12,19
350,627	11,53
350,992	12,11
351,357	10,57
351,722	8,25
352,087	10,97
352,452	11,04
352,817	8,37
353,181	9,18
353,546	8,28
353,911	5,52
354,276	3,88
354,64	3,05
355,005	3,02
355,37	1,47
355,734	1,98
356,099	2,79
356,463	1,77
356,828	3,75
357,192	4,02
357,556	3,47
357,921	5,57
358,285	7,12
358,649	9,26
359,013	11,2
359,378	12,29
359,742	13,1
360,106	13,75
360,47	14,89
360,834	14,72
361,198	14,14
361,562	12,9
361,926	11,38
362,289	11,08
362,653	11,16
363,017	8,92
363,381	8,8
363,744	7,99
364,108	7,11
364,472	6,96
364,835	6,95
365,199	7,39
365,562	9,73
365,926	8,3
366,289	7,11
366,652	7,84
367,016	9,23
367,379	9,7
367,742	11,84
368,105	11,17
368,469	11,25
368,832	12,36
369,195	13
369,558	10,76
369,921	13,11
370,284	14,68
370,647	13,9
371,01	11,5
371,372	9,71
371,735	8,61
372,098	7,81
372,461	6,87
372,823	7,18
373,186	7,38
373,549	7,97
373,911	7,42
374,274	6,21
374,636	6,71
374,999	7,1
375,361	8,81
375,723	7,66
376,086	8,62
376,448	9,62
376,81	8,99
377,172	8,36
377,535	10,37
377,897	9,64
378,259	10,21
378,621	10,12
378,983	9,31
379,345	11,01
379,707	10,38
380,068	9,76
380,43	10,28
380,792	8,8
381,154	7,68
381,516	7,98
381,877	9,39
382,239	8,89
382,6	8,67
382,962	10,82
383,323	8,67
383,685	11,07
384,046	10,23
384,408	10,62
384,769	10,89
385,13	13,61
385,492	12,53
385,853	10,51
386,214	11,84
386,575	11,01
386,936	8,31
387,297	7,32
387,658	7,71
388,019	12,32
388,38	12,99
388,741	14,86
389,102	13,59
389,463	13,3
389,823	15,97
390,184	15,14
390,545	16,54
390,906	17
391,266	18,9
391,627	18,33
391,987	15,63
392,348	14,37
392,708	13,52
393,069	14,56
393,429	14,75
393,789	15,32
394,15	15,9
394,51	16,79
394,87	17,06
395,23	17,16
395,59	16,89
395,95	14,46
396,31	14,43
396,67	14,32
397,03	15,3
397,39	15,93
397,75	14,28
398,11	13,53
398,47	9,28
398,829	13,18
399,189	12,41
399,549	13,54
399,908	16,15
400,268	15,14
400,627	14,43
400,987	12,19
401,346	10,96
401,706	15,23
402,065	19,68
402,424	36,04
402,784	72,13
403,143	176,74
403,502	394,76
403,861	669,07
404,221	876,38
404,58	1004,24
404,939	1076,64
405,298	1111,27
405,657	1120,96
406,015	1121,15
406,374	1111,11
406,733	1072,85
407,092	970,11
407,451	752,96
407,809	476,51
408,168	269,24
408,527	143,02
408,885	70,13
409,244	36,81
409,602	24,52
409,961	20,99
410,319	18,81
410,678	18,01
411,036	16,81
411,394	13,39
411,752	14,65
412,111	16,68
412,469	14,89
412,827	16,99
413,185	17,85
413,543	17,05
413,901	16,59
414,259	14,4
414,617	16,73
414,975	17,4
415,333	18,62
415,69	18,39
416,048	17,89
416,406	19,39
416,763	19,08
417,121	18,81
417,479	18,58
417,836	19,19
418,194	20,82
418,551	17,62
418,909	15,69
419,266	16,14
419,623	18,78
419,981	18,18
420,338	18,26
420,695	18,51
421,052	18,42
421,409	18,53
421,766	18,71
422,123	15,71
422,48	18,43
422,837	20,21
423,194	18,82
423,551	16,85
423,908	16,65
424,265	17,8
424,621	16,36
424,978	16,31
425,335	18,5
425,691	18,44
426,048	22,56
426,404	22,14
426,761	22,58
427,117	23,24
427,474	24,21
427,83	22,25
428,186	23,04
428,543	25,6
428,899	27,27
429,255	26,25
429,611	27,44
429,967	27,51
430,323	28,05
430,679	29,3
431,035	30,18
431,391	30,1
431,747	32,89
432,103	32,96
432,459	32,75
432,815	32,49
433,17	34,8
433,526	34,12
433,882	33,51
434,237	34,35
434,593	33,83
434,948	34,24
435,304	34,99
435,659	36,31
436,014	34,7
436,37	36,36
436,725	35,38
437,08	34,32
437,436	36,08
437,791	35,67
438,146	33,68
438,501	33,29
438,856	35,41
439,211	36,58
439,566	35,61
439,921	36,49
440,276	35,03
440,63	35,42
440,985	35,16
441,34	34,35
441,695	36,46
442,049	38,89
442,404	39,01
442,758	37,42
443,113	37,18
443,467	40,41
443,822	39,16
444,176	40
444,531	43,14
444,885	43,17
445,239	44,34
445,593	42,92
445,948	44,02
446,302	45,06
446,656	47,92
447,01	48,33
447,364	46,18
447,718	48,38
448,072	48,32
448,426	48,37
448,779	51,11
449,133	50,41
449,487	51,23
449,841	51,98
450,194	51,69
450,548	51,99
450,902	52,74
451,255	54,88
451,609	57,39
451,962	58,42
452,315	57,23
452,669	55,19
453,022	56,74
453,375	56,7
453,729	54,95
454,082	57,01
454,435	56,3
454,788	55,46
455,141	55,68
455,494	55,27
455,847	53,93
456,2	55,41
456,553	56,3
456,906	54,94
457,258	55,9
457,611	56,38
457,964	56,31
458,316	57,29
458,669	57,84
459,022	57,84
459,374	55,88
459,727	59,58
460,079	57,57
460,432	57,64
460,784	59,1
461,136	59,73
461,488	60,12
461,841	59,34
462,193	59,16
462,545	60,19
462,897	62,96
463,249	67,22
463,601	66,85
463,953	69,96
464,305	72,49
464,657	72,12
465,009	72,41
465,361	72,83
465,712	74,18
466,064	75,72
466,416	76,12
466,767	74,74
467,119	72,83
467,47	71,42
467,822	70,16
468,173	69,63
468,525	72,04
468,876	72,14
469,227	74,39
469,579	76,63
469,93	76,15
470,281	75,17
470,632	75,61
470,983	76,5
471,334	77,4
471,685	78,29
472,036	77,31
472,387	75,4
472,738	74,14
473,089	71,3
473,44	68,03
473,79	67,67
474,141	69,26
474,492	69,58
474,842	69,55
475,193	69,88
475,543	71,5
475,894	74,47
476,244	77,09
476,595	78,21
476,945	80,85
477,295	84,75
477,645	84,59
477,996	87,61
478,346	86,25
478,696	88,82
479,046	90,07
479,396	90,1
479,746	89,58
480,096	88,03
480,446	89,37
480,796	91,34
481,145	92,01
481,495	94,19
481,845	92,92
482,195	94,1
482,544	93,4
482,894	94,52
483,243	96,82
483,593	96,91
483,942	99,2
484,292	100,3
484,641	101,09
484,99	99,2
485,34	100,65
485,689	100,17
486,038	103,04
486,387	104,42
486,736	102,3
487,085	102,35
487,434	105,66
487,783	108,77
488,132	111,71
488,481	112,23
488,83	115,56
489,179	115,5
489,527	119,97
489,876	121,93
490,225	121,86
490,573	124,59
490,922	126,32
491,27	126,21
491,619	127,82
491,967	129,28
492,316	132,47
492,664	136,07
493,012	138,58
493,361	138,51
493,709	138,43
494,057	142,21
494,405	146,65
494,753	150,43
495,101	154,56
495,449	155,6
495,797	160,8
496,145	166,08
496,493	170,36
496,84	176
497,188	181,32
497,536	190,9
497,884	197,96
498,231	207
498,579	216,52
498,926	223,63
499,274	235,12
499,621	243,56
499,969	250,36
500,316	263,79
500,663	277,59
501,01	291,9
501,358	304,99
501,705	321,1
502,052	336,39
502,399	352,17
502,746	371,45
503,093	390,08
503,44	413,79
503,787	438,24
504,134	462,03
504,481	487,58
504,827	518,17
505,174	548,78
505,521	580,54
505,867	614,46
506,214	651,47
506,56	691,06
506,907	735,27
507,253	777,79
507,6	826,98
507,946	873,85
508,292	923,85
508,639	975,7
508,985	1032,89
509,331	1094,74
509,677	1160,1
510,023	1225,16
510,369	1293,69
510,715	1364,68
511,061	1435,58
511,407	1509,29
511,753	1585,64
512,099	1665,62
512,444	1745,8
512,79	1827,48
513,136	1905,61
513,481	1988,43
513,827	2070,97
514,172	2152,91
514,518	2232,51
514,863	2315,84
515,209	2393,24
515,554	2471,95
515,899	2545,46
516,245	2618,22
516,59	2685,82
516,935	2755,19
517,28	2815,34
517,625	2869,62
517,97	2919,69
518,315	2961,72
518,66	3000,39
519,005	3033,9
519,35	3062,33
519,695	3082,84
520,039	3098,8
520,384	3102,54
520,729	3100,26
521,073	3096,71
521,418	3091,6
521,762	3077,72
522,107	3059,72
522,451	3033,46
522,796	3005,94
523,14	2968,85
523,484	2935,85
523,829	2896,24
524,173	2859,9
524,517	2814,16
524,861	2765,14
525,205	2713,74
525,549	2665,28
525,893	2616,92
526,237	2568,34
526,581	2518,92
526,925	2469,24
527,269	2419,81
527,612	2369,87
527,956	2321,08
528,3	2274,05
528,643	2226,94
528,987	2180,82
529,33	2137,29
529,674	2094,68
530,017	2051,17
530,36	2009,91
530,704	1970,5
531,047	1930,68
531,39	1894,87
531,733	1859,26
532,077	1824,96
532,42	1793,74
532,763	1759,91
533,106	1727,54
533,449	1693,9
533,792	1664,26
534,134	1634,53
534,477	1610,18
534,82	1585,57
535,163	1556,84
535,505	1528,93
535,848	1508,14
536,191	1482,33
536,533	1461,88
536,876	1441,57
537,218	1421,66
537,56	1403,6
537,903	1385,66
538,245	1367,17
538,587	1347,86
538,93	1332,77
539,272	1318,43
539,614	1303,07
539,956	1288,25
540,298	1273,68
540,64	1257,23
540,982	1246
541,324	1232,28
541,666	1219,63
542,007	1205,68
542,349	1192,37
542,691	1180,24
543,032	1170,58
543,374	1159,96
543,716	1153,64
544,057	1145,78
544,398	1141,14
544,74	1131,93
545,081	1126,87
545,423	1119,37
545,764	1113,31
546,105	1107,87
546,446	1103,39
546,787	1096,48
547,128	1091,63
547,469	1085,44
547,81	1080,92
548,151	1079,44
548,492	1077
548,833	1074,37
549,174	1075,85
549,515	1078,56
549,855	1080,37
550,196	1082,18
550,537	1086,77
550,877	1087,64
551,218	1091,64
551,558	1095,31
551,899	1093,13
552,239	1099,5
552,579	1102,33
552,92	1105,41
553,26	1108,93
553,6	1114,2
553,94	1118,6
554,28	1121,8
554,62	1127,57
554,96	1132,17
555,3	1141,23
555,64	1147,55
555,98	1152,3
556,32	1160,82
556,66	1167,96
556,999	1176,4
557,339	1186,91
557,679	1198,67
558,018	1210,36
558,358	1225,36
558,697	1239,12
559,037	1251,6
559,376	1270,13
559,715	1289,96
560,055	1309,7
560,394	1329,59
560,733	1353,52
561,072	1376,1
561,411	1398,85
561,75	1425,31
562,089	1454,47
562,428	1485,12
562,767	1521,45
563,106	1559,61
563,445	1594,9
563,784	1637,99
564,122	1681,51
564,461	1726,58
564,8	1777,38
565,138	1835,16
565,477	1895,85
565,815	1959,97
566,154	2031,28
566,492	2104,97
566,83	2182,2
567,169	2265,61
567,507	2353,63
567,845	2449,5
568,183	2549,38
568,521	2657,91
568,859	2766,4
569,197	2882,53
569,535	3004,54
569,873	3130,29
570,211	3264,83
570,549	3405,71
570,887	3555,04
571,224	3704,43
571,562	3867,1
571,9	4037,27
572,237	4206,86
572,575	4386,3
572,912	4575,63
573,25	4765,46
573,587	4961,48
573,924	5167,37
574,262	5372,84
574,599	5583,57
574,936	5802,47
575,273	6018,03
575,61	6237,81
575,947	6464,61
576,284	6690,38
576,621	6907,41
576,958	7127,18
577,295	7347,91
577,632	7560,65
577,969	7780,29
578,305	7992,26
578,642	8195,41
578,979	8392,87
579,315	8578,96
579,652	8753,19
579,988	8922,33
580,325	9083,94
580,661	9227,42
580,997	9357,45
581,334	9474,51
581,67	9574,94
582,006	9658,7
582,342	9734,06
582,678	9784,23
583,014	9821,09
583,35	9844,87
583,686	9853,73
584,022	9842,17
584,358	9822,12
584,694	9788,32
585,029	9732,81
585,365	9668,56
585,701	9587,58
586,036	9491,87
586,372	9394,06
586,707	9286,69
587,043	9164,1
587,378	9028,27
587,714	8888,87
588,049	8736,65
588,384	8583,68
588,719	8428,84
589,054	8258,3
589,39	8095,16
589,725	7926,45
590,06	7755,11
590,395	7578,46
590,729	7409,49
591,064	7242,03
591,399	7074,43
591,734	6910,74
592,069	6743,03
592,403	6576,4
592,738	6420,27
593,073	6262,53
593,407	6107,01
593,742	5959,88
594,076	5814,14
594,41	5669,01
594,745	5529,06
595,079	5390,94
595,413	5257,34
595,747	5128,57
596,081	5004,46
596,416	4876,8
596,75	4756,81
597,084	4641,17
597,418	4526,94
597,751	4413,53
598,085	4306,91
598,419	4204,2
598,753	4107,78
599,086	4018,06
599,42	3923,3
599,754	3836,54
600,087	3754,5
600,421	3674,52
600,754	3597,1
601,088	3521,22
601,421	3456,88
601,754	3387,44
602,088	3316,45
602,421	3247
602,754	3182,83
603,087	3125,93
603,42	3067,69
603,753	3011,33
604,086	2960,72
604,419	2908,23
604,752	2857,44
605,085	2806,13
605,417	2757,86
605,75	2714,85
606,083	2675,22
606,415	2634,2
606,748	2593,9
607,08	2554,79
607,413	2518,49
607,745	2481,64
608,078	2448,71
608,41	2416,85
608,742	2385,48
609,074	2357,75
609,407	2330,08
609,739	2303,11
610,071	2275,26
610,403	2249,16
610,735	2223,88
611,067	2203,48
611,399	2181,8
611,73	2158,68
612,062	2138,49
612,394	2118,03
612,726	2099,11
613,057	2084,47
613,389	2069,08
613,72	2055,45
614,052	2042,73
614,383	2031,49
614,715	2016,55
615,046	1998,96
615,377	1989,64
615,708	1978,13
616,04	1972,69
616,371	1967,06
616,702	1956,4
617,033	1951,22
617,364	1947,08
617,695	1943,35
618,026	1938,91
618,356	1938,75
618,687	1942,95
619,018	1944,02
619,349	1947,15
619,679	1947
620,01	1947,12
620,34	1952,5
620,671	1956,5
621,001	1956,66
621,332	1961,64
621,662	1968,22
621,992	1972,38
622,322	1974,52
622,653	1979,23
622,983	1982,69
623,313	1987,92
623,643	1996,31
623,973	2001,76
624,303	2010,55
624,633	2017,09
624,962	2022,98
625,292	2024,53
625,622	2031,57
625,952	2038,57
626,281	2043,95
626,611	2051,47
626,94	2058,27
627,27	2059,99
627,599	2064,47
627,929	2061,56
628,258	2065,54
628,587	2069,85
628,916	2079,15
629,246	2081,61
629,575	2083,84
629,904	2085,13
630,233	2084,77
630,562	2086,73
630,891	2087,89
631,22	2086,77
631,548	2084,61
631,877	2082,66
632,206	2079
632,535	2071,31
632,863	2068,76
633,192	2067,23
633,52	2061,57
633,849	2058,3
634,177	2047,37
634,506	2040,6
634,834	2032,2
635,162	2028,71
635,49	2020,38
635,819	2008,87
636,147	1998,12
636,475	1983,91
636,803	1969,97
637,131	1957,99
637,459	1939,06
637,787	1924,49
638,114	1908,03
638,442	1888,01
638,77	1866,15
639,098	1847,31
639,425	1828,69
639,753	1808,16
640,08	1787,31
640,408	1763,65
640,735	1741,45
641,062	1720,3
641,39	1699,49
641,717	1674,23
642,044	1651,74
642,371	1628,16
642,699	1604,2
643,026	1577,91
643,353	1554,27
643,68	1527,22
644,006	1501,28
644,333	1473,9
644,66	1447,76
644,987	1419,63
645,314	1394,46
645,64	1366,09
645,967	1339,38
646,293	1312,17
646,62	1284,73
646,946	1258,13
647,273	1234,3
647,599	1208,43
647,925	1183,43
648,252	1157,23
