Data from Subt4__20__20.txt Node

Date: Fri Jun 07 14:39:18 CEST 2024
User: Naturwissenschaft
Spectrometer: FLMS00572
Trigger mode: 0
Integration Time (sec): 5,000000E-2
Scans to average: 20
Electric dark correction enabled: true
Nonlinearity correction enabled: false
Boxcar width: 5
XAxis mode: Wavelengths
Number of Pixels in Spectrum: 2048
>>>>>Begin Spectral Data<<<<<
190,164	2,69
190,544	3,79
190,925	5,36
191,306	4,24
191,687	4,64
192,067	2,16
192,448	1,86
192,829	0,05
193,209	-0,38
193,59	-1,89
193,97	-2,26
194,351	-1,9
194,731	0,58
195,112	-1,19
195,492	-1,88
195,872	-3,05
196,253	1,32
196,633	3,39
197,013	7,73
197,393	8,85
197,773	12,03
198,154	13,13
198,534	12,48
198,914	8,59
199,294	7,61
199,674	9,69
200,054	11,51
200,434	11,15
200,814	10,44
201,194	6,06
201,573	5,28
201,953	2,22
202,333	0,82
202,713	1,07
203,092	1,29
203,472	2,12
203,852	4,42
204,231	4,92
204,611	2,97
204,99	1,5
205,37	3,18
205,749	5,77
206,129	8,19
206,508	8,67
206,887	8,89
207,267	9,38
207,646	10,4
208,025	8,27
208,405	7,49
208,784	8,23
209,163	9,83
209,542	11,2
209,921	7,67
210,3	5,67
210,679	7,79
211,058	6,89
211,437	8,04
211,816	8,7
212,195	8,22
212,574	8,3
212,952	8,85
213,331	8,72
213,71	7,84
214,089	9,23
214,467	10,23
214,846	9,3
215,225	9,75
215,603	9,52
215,982	8,47
216,36	7,6
216,739	5,54
217,117	4,32
217,495	3,11
217,874	1,82
218,252	1,63
218,63	1,01
219,009	1,06
219,387	0,76
219,765	2,07
220,143	2,27
220,521	3,78
220,899	4,68
221,277	5,03
221,655	3,09
222,033	2,76
222,411	3,82
222,789	5,03
223,167	5,04
223,545	6,13
223,923	4,86
224,301	4,9
224,678	4,13
225,056	2,54
225,434	2,81
225,811	6,05
226,189	5,05
226,566	3,47
226,944	4,6
227,321	4,52
227,699	4,48
228,076	4,36
228,454	4,07
228,831	3,78
229,208	4,8
229,586	4,27
229,963	4,17
230,34	8,06
230,717	9,94
231,094	6,41
231,471	7,13
231,848	5,26
232,225	4,24
232,602	5,78
232,979	6,17
233,356	6,4
233,733	5,56
234,11	5,35
234,487	3,3
234,864	1,93
235,24	5,52
235,617	3,34
235,994	4,52
236,37	5,68
236,747	5,07
237,124	5,01
237,5	4,8
237,877	3,63
238,253	3,22
238,63	4,6
239,006	6,83
239,382	6,95
239,759	8,87
240,135	9,01
240,511	10,39
240,887	9,56
241,264	9,3
241,64	9,59
242,016	12,1
242,392	12,48
242,768	11,87
243,144	9,91
243,52	7,52
243,896	8,24
244,272	8,14
244,648	5,65
245,023	6,82
245,399	7,18
245,775	8,33
246,151	9,44
246,526	9,56
246,902	7,89
247,278	6,1
247,653	7,07
248,029	6,75
248,404	6,56
248,78	7,18
249,155	5,32
249,53	5,2
249,906	4,19
250,281	1,97
250,656	1,89
251,032	2,85
251,407	4,02
251,782	5,14
252,157	4,13
252,532	6,12
252,907	7,12
253,282	7,24
253,657	8,89
254,032	11,27
254,407	13,71
254,782	13,4
255,157	14,35
255,532	15,84
255,907	17,51
256,281	17,67
256,656	16,74
257,031	16,8
257,405	17,84
257,78	15,81
258,155	13,11
258,529	12,38
258,904	9,52
259,278	9,26
259,652	8,83
260,027	7,55
260,401	8,51
260,775	10,41
261,15	8,83
261,524	8,15
261,898	8,49
262,272	9,6
262,646	8,34
263,021	12,05
263,395	12,14
263,769	8,91
264,143	8,73
264,517	7,15
264,89	5,91
265,264	5,13
265,638	7,21
266,012	8,02
266,386	8,36
266,76	7,66
267,133	6,74
267,507	4,61
267,88	6,96
268,254	5,45
268,628	5,33
269,001	3,5
269,375	5,15
269,748	4,53
270,121	4,56
270,495	5,17
270,868	6,29
271,241	5,46
271,615	7,78
271,988	6,25
272,361	7,37
272,734	8,26
273,107	9,48
273,48	9,12
273,853	7,29
274,226	6,57
274,599	4,41
274,972	4,95
275,345	6,67
275,718	6,78
276,091	9,51
276,464	9,11
276,836	8,41
277,209	9,01
277,582	7,97
277,954	10,38
278,327	10,01
278,7	12,26
279,072	13,11
279,445	12,04
279,817	10,89
280,189	10,99
280,562	11,21
280,934	13,47
281,306	13,56
281,679	15,36
282,051	15,17
282,423	15,36
282,795	15,73
283,167	16,52
283,539	17,96
283,911	18,36
284,283	16,68
284,655	18,56
285,027	14,83
285,399	14,74
285,771	13,93
286,143	12,05
286,515	12,39
286,886	9,51
287,258	7,41
287,63	6,12
288,001	5,26
288,373	7,01
288,745	3,55
289,116	4,75
289,488	2,27
289,859	1,6
290,23	0,03
290,602	0,77
290,973	0,39
291,344	0,94
291,716	-0,25
292,087	0,89
292,458	0,97
292,829	1,69
293,2	2,5
293,571	4,91
293,942	5,18
294,313	8,92
294,684	8,16
295,055	9,47
295,426	11,02
295,797	14,2
296,168	15,58
296,539	13,72
296,909	16,92
297,28	16,34
297,651	15,42
298,021	14,72
298,392	13,16
298,763	12,39
299,133	11,75
299,503	9,41
299,874	6,18
300,244	3,78
300,615	2,96
300,985	-0,5
301,355	0,52
301,726	0,24
302,096	0,82
302,466	2,39
302,836	3,11
303,206	5,11
303,576	4,93
303,946	6,05
304,316	7,67
304,686	10,24
305,056	12,31
305,426	11,69
305,796	12,39
306,166	12,35
306,535	10,91
306,905	11,47
307,275	10,9
307,644	13,23
308,014	14,81
308,383	14,49
308,753	12,93
309,122	13,04
309,492	12,01
309,861	11,44
310,231	12,27
310,6	11,84
310,969	11,33
311,339	11,1
311,708	9,17
312,077	7,73
312,446	8,66
312,815	7,57
313,184	5,5
313,553	7,39
313,922	10,72
314,291	11,19
314,66	13,83
315,029	13,97
315,398	13,44
315,767	14,15
316,136	11,11
316,504	10,24
316,873	12,97
317,242	12,57
317,61	11,55
317,979	9,22
318,347	8,75
318,716	4,53
319,084	5,39
319,453	5,66
319,821	6,34
320,189	10,43
320,558	9,88
320,926	9,62
321,294	11,44
321,662	11,72
322,031	10,71
322,399	11,01
322,767	14,09
323,135	12,79
323,503	13,65
323,871	13,33
324,239	12,16
324,607	11,35
324,974	12,05
325,342	11,86
325,71	12,05
326,078	13,25
326,445	13,49
326,813	11,26
327,181	10,9
327,548	11,57
327,916	11,59
328,283	10,25
328,651	10,19
329,018	8,08
329,385	7,27
329,753	7,07
330,12	4,72
330,487	3,95
330,855	6,24
331,222	5,37
331,589	4,15
331,956	2,58
332,323	2,47
332,69	4,05
333,057	4,98
333,424	4,66
333,791	5,98
334,158	6,55
334,525	6,25
334,892	4,85
335,258	5,1
335,625	6,43
335,992	7,09
336,358	8,16
336,725	8,1
337,091	7,24
337,458	9,04
337,824	7,15
338,191	7,42
338,557	7,97
338,924	8,52
339,29	11,89
339,656	10,45
340,023	10,32
340,389	10,28
340,755	9,8
341,121	10,75
341,487	8,4
341,853	9,84
342,219	10,81
342,585	10,28
342,951	10,03
343,317	8,64
343,683	8,66
344,049	7,19
344,415	7,51
344,78	4,77
345,146	5,21
345,512	6,88
345,877	7,34
346,243	6,6
346,608	8,63
346,974	9,68
347,339	9,84
347,705	10,99
348,07	10,79
348,436	13,03
348,801	16,35
349,166	15,47
349,531	16,53
349,897	16,54
350,262	15,3
350,627	12,49
350,992	12,64
351,357	12,71
351,722	10,39
352,087	12,27
352,452	10,71
352,817	8,98
353,181	9,85
353,546	7,33
353,911	3,99
354,276	5,9
354,64	6,7
355,005	6,43
355,37	4,84
355,734	7,2
356,099	8,23
356,463	8,49
356,828	10,03
357,192	8,59
357,556	9,36
357,921	11,98
358,285	11,23
358,649	10,45
359,013	11,91
359,378	11,94
359,742	12,81
360,106	12,15
360,47	12,97
360,834	13,85
361,198	14,56
361,562	14,14
361,926	12,68
362,289	13,91
362,653	18,31
363,017	16,04
363,381	15,46
363,744	14,11
364,108	16,35
364,472	15,03
364,835	13,43
365,199	14,12
365,562	14,75
365,926	14,39
366,289	15,03
366,652	11,76
367,016	12,98
367,379	14,77
367,742	13,36
368,105	11,94
368,469	11,04
368,832	11,9
369,195	11,76
369,558	10,51
369,921	9,83
370,284	7,97
370,647	8,11
371,01	6,18
371,372	5,37
371,735	5,54
372,098	4,56
372,461	5,25
372,823	4,86
373,186	3,96
373,549	4,83
373,911	8,38
374,274	8,09
374,636	8,25
374,999	7,72
375,361	7,39
375,723	9,09
376,086	10,02
376,448	10,29
376,81	9,63
377,172	9,5
377,535	12,26
377,897	9,3
378,259	12,06
378,621	13,21
378,983	13,9
379,345	17,28
379,707	15,51
380,068	14,63
380,43	15,75
380,792	15,64
381,154	16,38
381,516	13,54
381,877	14,96
382,239	12,87
382,6	11,26
382,962	11,04
383,323	8,21
383,685	8,73
384,046	6,78
384,408	5,12
384,769	4,54
385,13	4,96
385,492	4,45
385,853	3,7
386,214	4,11
386,575	3,5
386,936	4,46
387,297	4,81
387,658	6,02
388,019	9,72
388,38	12,12
388,741	13,74
389,102	14,08
389,463	15,95
389,823	15,57
390,184	14,51
390,545	17,02
390,906	17,54
391,266	18
391,627	18,17
391,987	16,6
392,348	15,57
392,708	15,14
393,069	14,43
393,429	12,89
393,789	14,63
394,15	17,41
394,51	16,32
394,87	15,8
395,23	18,14
395,59	15,36
395,95	14,32
396,31	11,1
396,67	12,82
397,03	14,92
397,39	16,15
397,75	14,57
398,11	13,44
398,47	12,29
398,829	14,32
399,189	10,5
399,549	14,88
399,908	16,84
400,268	19,55
400,627	18,51
400,987	16,9
401,346	16,31
401,706	19,85
402,065	23,75
402,424	34,16
402,784	61,99
403,143	137,19
403,502	296,52
403,861	489,4
404,221	625,02
404,58	707,04
404,939	753,22
405,298	776,06
405,657	780,97
406,015	779,52
406,374	771,05
406,733	741,76
407,092	668
407,451	506,78
407,809	313,54
408,168	176,8
408,527	93,45
408,885	46
409,244	23,31
409,602	15,95
409,961	13,04
410,319	12,98
410,678	12,96
411,036	12,3
411,394	10,76
411,752	10,03
412,111	12,15
412,469	12,71
412,827	13,6
413,185	14
413,543	13,86
413,901	14,26
414,259	13,71
414,617	14,82
414,975	14,75
415,333	15,75
415,69	13,7
416,048	13,67
416,406	14,24
416,763	15,1
417,121	15,65
417,479	16,14
417,836	14,7
418,194	14,88
418,551	15,42
418,909	15,64
419,266	16,1
419,623	19,25
419,981	18,17
420,338	20,37
420,695	21,06
421,052	21,15
421,409	21,57
421,766	22,65
422,123	20,86
422,48	21,01
422,837	21,99
423,194	22,18
423,551	21,58
423,908	20,88
424,265	20,03
424,621	20,87
424,978	21,37
425,335	24,15
425,691	23,37
426,048	26,05
426,404	26,32
426,761	25,67
427,117	26,47
427,474	27,67
427,83	28,31
428,186	27,93
428,543	25,87
428,899	27,28
429,255	24,51
429,611	28,76
429,967	29,89
430,323	29,68
430,679	30,99
431,035	33,01
431,391	33,26
431,747	35,93
432,103	38,27
432,459	39,99
432,815	39,55
433,17	41,2
433,526	38,58
433,882	38,96
434,237	40,64
434,593	41,17
434,948	39,49
435,304	40,96
435,659	40,67
436,014	38,33
436,37	40,64
436,725	40,67
437,08	40,7
437,436	43,3
437,791	43,68
438,146	39,64
438,501	38,91
438,856	39,94
439,211	39,92
439,566	39,44
439,921	41,64
440,276	40,35
440,63	40,15
440,985	41,31
441,34	41,25
441,695	42,88
442,049	45,53
442,404	45,98
442,758	46,99
443,113	46,89
443,467	48,78
443,822	47,02
444,176	45,39
444,531	46,88
444,885	46,34
445,239	46,78
445,593	45,26
445,948	45,29
446,302	46,72
446,656	48,28
447,01	48,5
447,364	48,14
447,718	48,33
448,072	50,02
448,426	51,4
448,779	52,64
449,133	51,05
449,487	49,57
449,841	51,5
450,194	51,52
450,548	50,78
450,902	51,54
451,255	54,57
451,609	57,7
451,962	58,59
452,315	58,44
452,669	59,21
453,022	61,18
453,375	61,43
453,729	59,38
454,082	60,66
454,435	59,98
454,788	59,36
455,141	56,45
455,494	55,3
455,847	53,96
456,2	54,01
456,553	53,43
456,906	52,74
457,258	55,86
457,611	57,5
457,964	58,45
458,316	58,53
458,669	61,73
459,022	60,36
459,374	61,61
459,727	63,09
460,079	61,78
460,432	61,17
460,784	63,49
461,136	62,86
461,488	63,46
461,841	62,2
462,193	64,36
462,545	62,94
462,897	68,2
463,249	68,45
463,601	69,04
463,953	71,04
464,305	73,88
464,657	72,68
465,009	73,4
465,361	73,41
465,712	73,29
466,064	73,42
466,416	74,45
466,767	71,43
467,119	72,9
467,47	73,08
467,822	73,63
468,173	72,25
468,525	72,73
468,876	74,2
469,227	75,43
469,579	78,35
469,93	76,93
470,281	75,27
470,632	77,92
470,983	75,92
471,334	76,5
471,685	76,52
472,036	77,86
472,387	79,98
472,738	78,12
473,089	77,64
473,44	74,54
473,79	76,64
474,141	77,17
474,492	75,4
474,842	77,25
475,193	77,64
475,543	78,21
475,894	78,82
476,244	77,22
476,595	76,83
476,945	79,29
477,295	83,73
477,645	84,01
477,996	89,03
478,346	89,21
478,696	90,92
479,046	93,79
479,396	95,08
479,746	95,82
480,096	95,39
480,446	99,03
480,796	99,26
481,145	100,75
481,495	101,58
481,845	100,54
482,195	104,05
482,544	104,94
482,894	105,46
483,243	105,91
483,593	105,62
483,942	109,59
484,292	109,56
484,641	109,64
484,99	109,06
485,34	110,68
485,689	110,55
486,038	111,59
486,387	114,11
486,736	112,95
487,085	115,22
487,434	119,5
487,783	121,98
488,132	126,89
488,481	131,26
488,83	133,75
489,179	136,3
489,527	140,39
489,876	143,58
490,225	145,35
490,573	149,2
490,922	152,91
491,27	155,14
491,619	158,22
491,967	159,81
492,316	163,93
492,664	170,82
493,012	175,19
493,361	178,81
493,709	181,86
494,057	187,65
494,405	197,54
494,753	206,53
495,101	214,33
495,449	223,43
495,797	235,14
496,145	245,09
496,493	254,55
496,84	266,22
497,188	280,07
497,536	297,75
497,884	312,26
498,231	325,72
498,579	341,15
498,926	361,45
499,274	382,78
499,621	404,18
499,969	425,99
500,316	452,27
500,663	480,25
501,01	509,34
501,358	540,76
501,705	575,03
502,052	611,85
502,399	652,14
502,746	692,66
503,093	735
503,44	785,14
503,787	837,93
504,134	894,01
504,481	953,81
504,827	1021,14
505,174	1088,24
505,521	1162,59
505,867	1242,73
506,214	1326,54
506,56	1416,8
506,907	1512,81
507,253	1612,54
507,6	1719,23
507,946	1830,03
508,292	1945,22
508,639	2065,41
508,985	2192,69
509,331	2328,76
509,677	2469,74
510,023	2616,74
510,369	2769,12
510,715	2929,36
511,061	3090,93
511,407	3260,44
511,753	3435,22
512,099	3617,48
512,444	3801,92
512,79	3993,42
513,136	4177,66
513,481	4367,82
513,827	4559,23
514,172	4748,35
514,518	4937,97
514,863	5131,97
515,209	5320,77
515,554	5504,13
515,899	5682,16
516,245	5847,4
516,59	6005,23
516,935	6164,91
517,28	6310,7
517,625	6450,53
517,97	6582,43
518,315	6694,45
518,66	6788,29
519,005	6870,58
519,35	6938,72
519,695	6991,9
520,039	7037,55
520,384	7069,71
520,729	7079,86
521,073	7084,48
521,418	7063,98
521,762	7030,05
522,107	6983,77
522,451	6927,6
522,796	6868,44
523,14	6796,14
523,484	6717,7
523,829	6630,16
524,173	6535,23
524,517	6438,44
524,861	6325,69
525,205	6215,78
525,549	6103,45
525,893	5992,02
526,237	5881,24
526,581	5759,1
526,925	5643,85
527,269	5529,92
527,612	5416,69
527,956	5301,76
528,3	5187,13
528,643	5078,65
528,987	4971,31
529,33	4870,93
529,674	4772,37
530,017	4673,26
530,36	4583,03
530,704	4489,25
531,047	4397,68
531,39	4311,64
531,733	4230,52
532,077	4152,19
532,42	4076,88
532,763	4003,23
533,106	3927,84
533,449	3858,98
533,792	3793,17
534,134	3727,4
534,477	3667,47
534,82	3607,65
535,163	3548,65
535,505	3489,73
535,848	3435,3
536,191	3379,75
536,533	3328,93
536,876	3279,01
537,218	3230,74
537,56	3181,89
537,903	3132,73
538,245	3087,41
538,587	3044,1
538,93	3000,19
539,272	2957,28
539,614	2916,2
539,956	2879,98
540,298	2842,96
540,64	2806,64
540,982	2772,69
541,324	2743,44
541,666	2713,53
542,007	2682,74
542,349	2653,34
542,691	2625,37
543,032	2602,41
543,374	2578,17
543,716	2554,28
544,057	2530,32
544,398	2509,47
544,74	2484,34
545,081	2462,54
545,423	2443,09
545,764	2422,59
546,105	2403,04
546,446	2387,37
546,787	2370,23
547,128	2353,7
547,469	2338,24
547,81	2328,91
548,151	2319,27
548,492	2311,56
548,833	2301,72
549,174	2296,46
549,515	2294,08
549,855	2290,22
550,196	2283,31
550,537	2280,75
550,877	2277,7
551,218	2275,62
551,558	2267,96
551,899	2263,03
552,239	2260,69
552,579	2257,59
552,92	2249,9
553,26	2243,15
553,6	2238,27
553,94	2236,56
554,28	2232,97
554,62	2231,07
554,96	2226,07
555,3	2224,55
555,64	2219,8
555,98	2215,27
556,32	2212,03
556,66	2210,16
556,999	2208,18
557,339	2204,89
557,679	2203,16
558,018	2198,76
558,358	2196,82
558,697	2193,99
559,037	2194,83
559,376	2197
559,715	2196,77
560,055	2199,29
560,394	2202,16
560,733	2204,48
561,072	2208,24
561,411	2211,84
561,75	2219,19
562,089	2226,58
562,428	2240,5
562,767	2251,53
563,106	2262,37
563,445	2277,84
563,784	2296,26
564,122	2315,65
564,461	2340,81
564,8	2368,24
565,138	2395,8
565,477	2427,97
565,815	2463,65
566,154	2497,32
566,492	2536,98
566,83	2583,33
567,169	2630,19
567,507	2681,46
567,845	2736,7
568,183	2795,21
568,521	2858,01
568,859	2928,99
569,197	2999,21
569,535	3072,08
569,873	3155,4
570,211	3240,13
570,549	3329,19
570,887	3424,84
571,224	3519,2
571,562	3621,22
571,9	3726,97
572,237	3835,9
572,575	3948,54
572,912	4067,46
573,25	4189,82
573,587	4311,02
573,924	4437,17
574,262	4565,8
574,599	4693,32
574,936	4828,75
575,273	4960,75
575,61	5095,25
575,947	5232,48
576,284	5365
576,621	5495,53
576,958	5628,46
577,295	5764,1
577,632	5895,61
577,969	6019,85
578,305	6147,44
578,642	6263,28
578,979	6380,95
579,315	6489,08
579,652	6591,18
579,988	6686,21
580,325	6775,23
580,661	6850,82
580,997	6914,47
581,334	6971,41
581,67	7021,75
582,006	7058,69
582,342	7089,99
582,678	7103
583,014	7107,56
583,35	7104,78
583,686	7096,03
584,022	7073,21
584,358	7043,31
584,694	7002,81
585,029	6952,62
585,365	6891,61
585,701	6824,07
586,036	6747,39
586,372	6673,23
586,707	6589,34
587,043	6495,68
587,378	6392,99
587,714	6293,42
588,049	6187,44
588,384	6079,15
588,719	5968,68
589,054	5857,59
589,39	5744,52
589,725	5633,24
590,06	5510,71
590,395	5394,9
590,729	5282,04
591,064	5166,26
591,399	5048,14
591,734	4931,14
592,069	4820,84
592,403	4711,31
592,738	4603,9
593,073	4495,68
593,407	4386,75
593,742	4287,72
594,076	4185,55
594,41	4083,65
594,745	3988,62
595,079	3892,68
595,413	3804,77
595,747	3714,34
596,081	3627,54
596,416	3540,52
596,75	3459,3
597,084	3380,05
597,418	3302,08
597,751	3224,32
598,085	3152,42
598,419	3084,81
598,753	3018,53
599,086	2952,21
599,42	2890,42
599,754	2827,23
600,087	2770,83
600,421	2713,27
600,754	2657,73
601,088	2605,59
601,421	2558,61
601,754	2509,86
602,088	2461,63
602,421	2416,41
602,754	2374,13
603,087	2328,33
603,42	2285,64
603,753	2245,67
604,086	2209,32
604,419	2175,02
604,752	2138,9
605,085	2103,49
605,417	2069,44
605,75	2035,36
606,083	2006,05
606,415	1974,96
606,748	1948,53
607,08	1923,79
607,413	1896,82
607,745	1870,95
608,078	1847,16
608,41	1823,11
608,742	1799,38
609,074	1777,87
609,407	1759,26
609,739	1739,48
610,071	1721,68
610,403	1702,91
610,735	1682,66
611,067	1665,81
611,399	1649,56
611,73	1629,45
612,062	1613,09
612,394	1599,14
612,726	1584,79
613,057	1572,27
613,389	1557,66
613,72	1543,89
614,052	1531,59
614,383	1523,11
614,715	1512,95
615,046	1501,18
615,377	1494,43
615,708	1488,15
616,04	1482,72
616,371	1475,17
616,702	1464,87
617,033	1460,68
617,364	1455,65
617,695	1450,92
618,026	1446,81
618,356	1444,85
618,687	1447,46
619,018	1446,29
619,349	1445,08
619,679	1440,83
620,01	1442,44
620,34	1446,06
620,671	1446,66
621,001	1446,71
621,332	1450,02
621,662	1452,89
621,992	1454,78
622,322	1453,17
622,653	1453,85
622,983	1455,66
623,313	1462,42
623,643	1464,86
623,973	1467,44
624,303	1470,31
624,633	1472,93
624,962	1471,67
625,292	1471,07
625,622	1469,57
625,952	1472,04
626,281	1477,47
626,611	1477,78
626,94	1475,66
627,27	1474,69
627,599	1475,68
627,929	1473,64
628,258	1472,71
628,587	1476,19
628,916	1474,21
629,246	1476,79
629,575	1473,46
629,904	1468,2
630,233	1465,39
630,562	1467,52
630,891	1467,77
631,22	1464,18
631,548	1463,37
631,877	1462,2
632,206	1456,6
632,535	1457,24
632,863	1455,06
633,192	1453,89
633,52	1448,27
633,849	1446,3
634,177	1437,74
634,506	1430,11
634,834	1424,75
635,162	1420,08
635,49	1414,29
635,819	1407,05
636,147	1398,28
636,475	1386,02
636,803	1376,29
637,131	1367,02
637,459	1354,57
637,787	1341,21
638,114	1327,95
638,442	1314,4
638,77	1301
639,098	1287,42
639,425	1274,31
639,753	1259,16
640,08	1242,21
640,408	1226,67
640,735	1211,65
641,062	1197,31
641,39	1184,23
641,717	1169,23
642,044	1150,93
642,371	1133,05
642,699	1115,43
643,026	1097,11
643,353	1078,23
643,68	1063,46
644,006	1042,63
644,333	1023,49
644,66	1005,84
644,987	985,48
645,314	968,31
645,64	950,83
645,967	931,84
646,293	913,24
646,62	893,86
646,946	875,99
647,273	859,36
647,599	847,49
