Data from Subt4__54__54.txt Node

Date: Fri Jun 07 14:39:52 CEST 2024
User: Naturwissenschaft
Spectrometer: FLMS00572
Trigger mode: 0
Integration Time (sec): 5,000000E-2
Scans to average: 20
Electric dark correction enabled: true
Nonlinearity correction enabled: false
Boxcar width: 5
XAxis mode: Wavelengths
Number of Pixels in Spectrum: 2048
>>>>>Begin Spectral Data<<<<<
190,164	-9,35
190,544	-4,97
190,925	-2,5
191,306	-2,98
191,687	-2,73
192,067	-3,81
192,448	-3,08
192,829	-1,4
193,209	-1,41
193,59	-1,76
193,97	-0,46
194,351	-2,08
194,731	-2,74
195,112	-4,95
195,492	-3,37
195,872	-3,54
196,253	-2,26
196,633	0,23
197,013	1,32
197,393	4,23
197,773	6,91
198,154	4,99
198,534	7,84
198,914	6,76
199,294	6,78
199,674	6,43
200,054	6,85
200,434	6,51
200,814	7,09
201,194	7,54
201,573	5,72
201,953	3,71
202,333	2,67
202,713	1,44
203,092	0,12
203,472	1,13
203,852	3,67
204,231	5,4
204,611	6,13
204,99	4,05
205,37	2,8
205,749	3,7
206,129	5,51
206,508	7,88
206,887	8,72
207,267	7,89
207,646	9,22
208,025	6
208,405	3,37
208,784	2,55
209,163	3,11
209,542	3,71
209,921	2,13
210,3	2,55
210,679	2,06
211,058	1,83
211,437	6,06
211,816	5,14
212,195	5,14
212,574	6,09
212,952	7,07
213,331	7,13
213,71	6,11
214,089	8,51
214,467	8,58
214,846	9,67
215,225	7,46
215,603	6,79
215,982	6,09
216,36	6,43
216,739	7,08
217,117	8,2
217,495	8,14
217,874	7,71
218,252	5,73
218,63	3,39
219,009	1,23
219,387	1,45
219,765	2
220,143	4,04
220,521	5,95
220,899	4,46
221,277	4,2
221,655	5,23
222,033	6,47
222,411	10,07
222,789	11,83
223,167	14,52
223,545	14,66
223,923	14,34
224,301	13,63
224,678	12,62
225,056	12,9
225,434	11,48
225,811	11,74
226,189	11,59
226,566	8,25
226,944	8,86
227,321	7,04
227,699	6,7
228,076	5,47
228,454	5,19
228,831	4,65
229,208	6,32
229,586	6,11
229,963	6,07
230,34	5,66
230,717	8,62
231,094	8,03
231,471	8,89
231,848	8,67
232,225	8,76
232,602	8,99
232,979	8,24
233,356	7,08
233,733	7,04
234,11	6,14
234,487	6,65
234,864	4,06
235,24	4,75
235,617	3,97
235,994	4,47
236,37	5,02
236,747	4,98
237,124	5,73
237,5	3,56
237,877	3,14
238,253	3,76
238,63	3,36
239,006	4,61
239,382	3,98
239,759	4,27
240,135	4,56
240,511	3,16
240,887	1,51
241,264	1,02
241,64	2,08
242,016	3,57
242,392	2,6
242,768	4
243,144	3,48
243,52	1,1
243,896	1,64
244,272	2,52
244,648	3,65
245,023	2,75
245,399	3,55
245,775	3,62
246,151	2,81
246,526	1,97
246,902	0,7
247,278	-1,12
247,653	-0,4
248,029	-0,5
248,404	-0,2
248,78	0,28
249,155	-0,22
249,53	-0,77
249,906	1,47
250,281	3,45
250,656	5,43
251,032	5,6
251,407	6,11
251,782	8,22
252,157	7,69
252,532	8,06
252,907	6,98
253,282	9,07
253,657	10,51
254,032	10,17
254,407	9,36
254,782	8,74
255,157	8,76
255,532	10,06
255,907	10,79
256,281	10,91
256,656	10,93
257,031	10,21
257,405	9,42
257,78	7,84
258,155	7,89
258,529	8,4
258,904	4,78
259,278	5,84
259,652	7,15
260,027	5,43
260,401	5,53
260,775	5,59
261,15	6,62
261,524	7,66
261,898	6,46
262,272	6,21
262,646	3,55
263,021	7,76
263,395	7,84
263,769	6,23
264,143	7,85
264,517	6,5
264,89	6,47
265,264	3,95
265,638	4,66
266,012	6,33
266,386	5,33
266,76	5,2
267,133	3,67
267,507	2,11
267,88	2,79
268,254	2,01
268,628	2,82
269,001	1,12
269,375	5,33
269,748	6,78
270,121	6,96
270,495	8,31
270,868	10,33
271,241	11,4
271,615	12,06
271,988	11,1
272,361	9,55
272,734	9,54
273,107	11,75
273,48	9,78
273,853	5,83
274,226	7,13
274,599	6,23
274,972	6,18
275,345	6,45
275,718	6,33
276,091	6,25
276,464	6,48
276,836	6,04
277,209	5,43
277,582	4,59
277,954	8,41
278,327	7,13
278,7	7,08
279,072	6,15
279,445	6,62
279,817	6,99
280,189	8,56
280,562	10,76
280,934	12,96
281,306	11,52
281,679	12,96
282,051	11,6
282,423	10,09
282,795	11,18
283,167	13,21
283,539	12,88
283,911	12,43
284,283	10,03
284,655	9,47
285,027	8,25
285,399	9,22
285,771	10,07
286,143	8,06
286,515	8,42
286,886	6,82
287,258	4,79
287,63	4,43
288,001	3,79
288,373	6,41
288,745	3,31
289,116	2,45
289,488	1,44
289,859	-1,12
290,23	0,38
290,602	1,08
290,973	-0,11
291,344	1,78
291,716	1,77
292,087	2,12
292,458	1,87
292,829	2,92
293,2	3,84
293,571	3,92
293,942	4,03
294,313	4,62
294,684	4,89
295,055	6,17
295,426	6,68
295,797	8,64
296,168	9,07
296,539	8,76
296,909	11,32
297,28	10,51
297,651	11,35
298,021	13,03
298,392	11,8
298,763	11,32
299,133	12,04
299,503	8,68
299,874	3,98
300,244	4,3
300,615	3,28
300,985	2,18
301,355	3,9
301,726	3,97
302,096	1,44
302,466	2,24
302,836	1,69
303,206	3,79
303,576	6,14
303,946	8,51
304,316	7,4
304,686	8,96
305,056	10,62
305,426	8,33
305,796	7,81
306,166	8,46
306,535	8,39
306,905	8,91
307,275	5,6
307,644	4,84
308,014	6,17
308,383	5,73
308,753	3,31
309,122	1,42
309,492	2,24
309,861	3,52
310,231	4,18
310,6	2,97
310,969	4,54
311,339	5,46
311,708	4,4
312,077	1,45
312,446	3,51
312,815	4,78
313,184	3,69
313,553	3,98
313,922	4,53
314,291	5,42
314,66	8,63
315,029	7,61
315,398	6,69
315,767	7,54
316,136	8,03
316,504	6,35
316,873	7,03
317,242	6,51
317,61	5,73
317,979	4,9
318,347	4,54
318,716	1,01
319,084	1,3
319,453	3,35
319,821	5,65
320,189	8,4
320,558	9,92
320,926	9,96
321,294	10,66
321,662	10,98
322,031	12,6
322,399	12,34
322,767	15,17
323,135	14,44
323,503	13,53
323,871	10,99
324,239	10,94
324,607	9,85
324,974	10,12
325,342	11,9
325,71	12,11
326,078	11,08
326,445	13,86
326,813	11,75
327,181	10,84
327,548	11,49
327,916	12,12
328,283	8,31
328,651	9,37
329,018	8,38
329,385	6,69
329,753	5,89
330,12	3,88
330,487	-0,69
330,855	1,78
331,222	1,6
331,589	1,3
331,956	1,68
332,323	1,92
332,69	-0,09
333,057	0,62
333,424	1
333,791	3,6
334,158	2,23
334,525	5,09
334,892	3,19
335,258	2,49
335,625	2,65
335,992	1,17
336,358	1,2
336,725	2,11
337,091	1,15
337,458	1,77
337,824	-1,44
338,191	-1,11
338,557	-2,47
338,924	-2,37
339,29	-0,25
339,656	-0,01
340,023	0,8
340,389	1,57
340,755	1,47
341,121	1,87
341,487	-0,14
341,853	2,3
342,219	5,95
342,585	8,17
342,951	7,33
343,317	8,37
343,683	7,22
344,049	4,77
344,415	6,85
344,78	5,54
345,146	7,21
345,512	8,89
345,877	9,31
346,243	6,73
346,608	5,93
346,974	7,92
347,339	6,83
347,705	8,32
348,07	9,38
348,436	9,25
348,801	11,23
349,166	8,76
349,531	9,36
349,897	9,93
350,262	12
350,627	10,79
350,992	10,08
351,357	10,02
351,722	8,53
352,087	11,29
352,452	11
352,817	10,12
353,181	12,07
353,546	10,82
353,911	6,87
354,276	6,45
354,64	7,47
355,005	8,62
355,37	8,72
355,734	10,16
356,099	10,31
356,463	10,07
356,828	10,53
357,192	8,75
357,556	9,53
357,921	12,58
358,285	11,24
358,649	10,61
359,013	10,68
359,378	10,53
359,742	10,53
360,106	8,82
360,47	9,18
360,834	9,86
361,198	10,6
361,562	10,68
361,926	9,6
362,289	9,86
362,653	11,24
363,017	9,82
363,381	10,21
363,744	9,21
364,108	11,43
364,472	10,89
364,835	10,87
365,199	11,26
365,562	11,17
365,926	9,77
366,289	9,93
366,652	9,26
367,016	10,23
367,379	10,59
367,742	11,63
368,105	11,06
368,469	10,47
368,832	11,68
369,195	11,88
369,558	9,75
369,921	9,23
370,284	9,45
370,647	8,71
371,01	6,68
371,372	4,96
371,735	4,61
372,098	2,62
372,461	1,47
372,823	0,31
373,186	0,9
373,549	0,31
373,911	4,3
374,274	4,3
374,636	4,24
374,999	4,76
375,361	5,59
375,723	5,72
376,086	7,53
376,448	9,31
376,81	8,33
377,172	7,23
377,535	10,5
377,897	8,27
378,259	8,07
378,621	7,05
378,983	8,32
379,345	10,29
379,707	9,28
380,068	8,07
380,43	7,96
380,792	9,25
381,154	9,42
381,516	6,82
381,877	6,01
382,239	6,26
382,6	8,31
382,962	7,98
383,323	6,16
383,685	6,94
384,046	5,79
384,408	7
384,769	5,5
385,13	6,07
385,492	7,56
385,853	7,19
386,214	8,89
386,575	7,5
386,936	7,04
387,297	6,91
387,658	7,41
388,019	10,04
388,38	9,03
388,741	9,23
389,102	8,38
389,463	8,21
389,823	9,81
390,184	8,69
390,545	10,97
390,906	11,24
391,266	12,47
391,627	11,25
391,987	9,98
392,348	9,55
392,708	10,24
393,069	11,18
393,429	11,15
393,789	11,72
394,15	10,84
394,51	10,94
394,87	11,1
395,23	11,68
395,59	11,14
395,95	10,03
396,31	9,72
396,67	10,99
397,03	13,16
397,39	15,2
397,75	14,72
398,11	14,23
398,47	10,25
398,829	11,17
399,189	9,21
399,549	11,21
399,908	12,28
400,268	11,81
400,627	10,35
400,987	7,24
401,346	5,06
401,706	7,5
402,065	12,14
402,424	26,59
402,784	55,97
403,143	139,87
403,502	317,5
403,861	547,65
404,221	721,2
404,58	827,16
404,939	889,54
405,298	922,82
405,657	932,31
406,015	932,04
406,374	922,27
406,733	893,17
407,092	809,88
407,451	633,47
407,809	402,7
408,168	229,94
408,527	124,58
408,885	62,25
409,244	30,47
409,602	19,29
409,961	15,37
410,319	14,05
410,678	12,66
411,036	14,24
411,394	12,38
411,752	12,98
412,111	14,94
412,469	14,33
412,827	14,34
413,185	13,77
413,543	12,69
413,901	13,59
414,259	13,96
414,617	17,73
414,975	17,54
415,333	17,46
415,69	16,69
416,048	16,29
416,406	17,04
416,763	19,15
417,121	19,08
417,479	19,84
417,836	18,21
418,194	18,51
418,551	15,1
418,909	13,97
419,266	16,2
419,623	19,2
419,981	19,61
420,338	19,3
420,695	18,67
421,052	19,28
421,409	20,34
421,766	23,25
422,123	20
422,48	21,03
422,837	21
423,194	18,23
423,551	17,08
423,908	16,93
424,265	18,48
424,621	17,35
424,978	18,78
425,335	19,65
425,691	18,32
426,048	22,72
426,404	23,74
426,761	25,59
427,117	25,91
427,474	25,88
427,83	25,03
428,186	26,35
428,543	28,57
428,899	27,91
429,255	26,54
429,611	28,54
429,967	27,96
430,323	26,26
430,679	25,97
431,035	27,73
431,391	28,64
431,747	31,16
432,103	30,52
432,459	30,75
432,815	31,48
433,17	33,51
433,526	30,91
433,882	31,47
434,237	32,06
434,593	32,6
434,948	32,4
435,304	34,2
435,659	32,88
436,014	32,41
436,37	33,38
436,725	33,1
437,08	32,79
437,436	36,46
437,791	34,65
438,146	34,71
438,501	32,53
438,856	34,16
439,211	33,32
439,566	34,6
439,921	36,19
440,276	36,56
440,63	36,55
440,985	35,62
441,34	34,53
441,695	36,52
442,049	36,18
442,404	37,32
442,758	36,53
443,113	38,74
443,467	38,83
443,822	36,63
444,176	35,06
444,531	36,53
444,885	36,44
445,239	36,99
445,593	36,84
445,948	38,01
446,302	40,02
446,656	40,31
447,01	39,87
447,364	40,13
447,718	41,57
448,072	41,38
448,426	42,4
448,779	44,08
449,133	43,62
449,487	43,4
449,841	45,79
450,194	46,14
450,548	45,57
450,902	46,2
451,255	46,21
451,609	48,31
451,962	50,7
452,315	51,91
452,669	52,6
453,022	55,9
453,375	55,73
453,729	54,57
454,082	54,66
454,435	56,13
454,788	54,54
455,141	54,94
455,494	55,22
455,847	54,24
456,2	54,87
456,553	55,38
456,906	54
457,258	55,22
457,611	55,12
457,964	55,28
458,316	55,54
458,669	56,74
459,022	58,53
459,374	56,46
459,727	59,02
460,079	56,05
460,432	55,21
460,784	55,76
461,136	55,78
461,488	57,35
461,841	56,37
462,193	59,42
462,545	59,43
462,897	60,88
463,249	63,79
463,601	61,37
463,953	64,01
464,305	66,35
464,657	66,63
465,009	67,74
465,361	65,85
465,712	67,65
466,064	66,86
466,416	66,72
466,767	65,28
467,119	65,94
467,47	68,3
467,822	66,07
468,173	63,91
468,525	65,45
468,876	66,91
469,227	71,46
469,579	72,69
469,93	73,16
470,281	73,89
470,632	74,34
470,983	73,05
471,334	73,01
471,685	74,08
472,036	76,87
472,387	77,26
472,738	77,66
473,089	74,61
473,44	74,02
473,79	72,78
474,141	71,78
474,492	71,43
474,842	72,19
475,193	72,95
475,543	74,31
475,894	73,74
476,244	72,96
476,595	71,38
476,945	73,97
477,295	75,22
477,645	77,08
477,996	81,64
478,346	81,72
478,696	83,6
479,046	85,06
479,396	86,51
479,746	88,06
480,096	88,05
480,446	89,48
480,796	90,85
481,145	93,98
481,495	94,82
481,845	93,62
482,195	93,92
482,544	95,04
482,894	97,06
483,243	96,67
483,593	94,59
483,942	95,24
484,292	96,18
484,641	96,87
484,99	94,15
485,34	94,91
485,689	94,49
486,038	98,19
486,387	98,86
486,736	94,7
487,085	97,08
487,434	101,23
487,783	103,21
488,132	104,99
488,481	105,77
488,83	109,26
489,179	110,23
489,527	113,8
489,876	113,92
490,225	114,56
490,573	117,34
490,922	117,91
491,27	121,01
491,619	121,59
491,967	123,73
492,316	125,32
492,664	127,54
493,012	129
493,361	128,48
493,709	129,48
494,057	131,9
494,405	136,17
494,753	137,82
495,101	135,58
495,449	137,94
495,797	139,19
496,145	141,89
496,493	143,87
496,84	147,36
497,188	152,38
497,536	159,95
497,884	163,83
498,231	167,81
498,579	174,4
498,926	182,82
499,274	189,7
499,621	196,57
499,969	202,42
500,316	212,27
500,663	220,83
501,01	227,08
501,358	234,67
501,705	245,29
502,052	254,36
502,399	265,84
502,746	276,93
503,093	289,8
503,44	304,16
503,787	318,4
504,134	332,1
504,481	346,58
504,827	366,25
505,174	386,13
505,521	406,98
505,867	430
506,214	455,21
506,56	482,54
506,907	510,11
507,253	540,02
507,6	574,46
507,946	605,62
508,292	639,38
508,639	675,06
508,985	710,85
509,331	749,71
509,677	791,27
510,023	833,49
510,369	876,31
510,715	921,69
511,061	966,64
511,407	1012,05
511,753	1062,12
512,099	1116,09
512,444	1169,2
512,79	1219,44
513,136	1271,43
513,481	1325,57
513,827	1376,44
514,172	1430,22
514,518	1482,6
514,863	1538,22
515,209	1587,82
515,554	1639,15
515,899	1686,34
516,245	1728,73
516,59	1773,9
516,935	1813,37
517,28	1848,42
517,625	1883,25
517,97	1912,94
518,315	1938,58
518,66	1956,82
519,005	1978,41
519,35	1993,46
519,695	2005,61
520,039	2015,51
520,384	2018,66
520,729	2019,11
521,073	2017,49
521,418	2010,84
521,762	1998,95
522,107	1987,75
522,451	1970,79
522,796	1950,05
523,14	1925,93
523,484	1900,92
523,829	1875,35
524,173	1851,2
524,517	1824,54
524,861	1794,74
525,205	1763,13
525,549	1731,19
525,893	1698,52
526,237	1670,32
526,581	1637,91
526,925	1608,32
527,269	1576,01
527,612	1542,44
527,956	1506,26
528,3	1474,44
528,643	1443,74
528,987	1414,24
529,33	1386,94
529,674	1360,85
530,017	1333,22
530,36	1308,87
530,704	1280,56
531,047	1256,56
531,39	1235,23
531,733	1217,96
532,077	1194,2
532,42	1175,42
532,763	1152,71
533,106	1133,56
533,449	1110,81
533,792	1091,76
534,134	1072,73
534,477	1057,4
534,82	1041,58
535,163	1024,34
535,505	1005,42
535,848	990,7
536,191	971,94
536,533	960,35
536,876	948,12
537,218	935,61
537,56	922,86
537,903	911,48
538,245	901,03
538,587	889,16
538,93	879,03
539,272	868,03
539,614	857,6
539,956	850,64
540,298	840,63
540,64	829,11
540,982	820,48
541,324	812,77
541,666	805,46
542,007	795,36
542,349	787,98
542,691	784,54
543,032	781,07
543,374	777,34
543,716	773,65
544,057	771,68
544,398	770,56
544,74	767,38
545,081	763,24
545,423	758,36
545,764	755,74
546,105	754,13
546,446	750,72
546,787	746,68
547,128	745,21
547,469	740,69
547,81	741,25
548,151	738,58
548,492	739,14
548,833	739,03
549,174	741,51
549,515	743,15
549,855	742,6
550,196	743,23
550,537	746,62
550,877	748,55
551,218	752,95
551,558	754,25
551,899	759,68
552,239	765,08
552,579	772,24
552,92	776,99
553,26	782,83
553,6	789,9
553,94	797,03
554,28	804,19
554,62	813,28
554,96	821,51
555,3	831,53
555,64	840
555,98	851,65
556,32	861,14
556,66	872,25
556,999	886,88
557,339	898,11
557,679	912,23
558,018	926,97
558,358	941,83
558,697	959,97
559,037	978,25
559,376	1000,13
559,715	1019,59
560,055	1043,5
560,394	1068,25
560,733	1094,88
561,072	1124,82
561,411	1154,4
561,75	1185,43
562,089	1221,49
562,428	1259,38
562,767	1300,59
563,106	1343,28
563,445	1387,24
563,784	1432,96
564,122	1483,28
564,461	1537,56
564,8	1596,94
565,138	1659,38
565,477	1727,6
565,815	1798,78
566,154	1873,82
566,492	1950,29
566,83	2034,38
567,169	2122,91
567,507	2223,4
567,845	2325,45
568,183	2433,37
568,521	2549,82
568,859	2670,77
569,197	2797,22
569,535	2934,09
569,873	3074,81
570,211	3227,6
570,549	3382,12
570,887	3550,28
571,224	3714,88
571,562	3893,34
571,9	4075,97
572,237	4264,48
572,575	4465,52
572,912	4673,84
573,25	4881,62
573,587	5100,53
573,924	5319,87
574,262	5548,83
574,599	5779,22
574,936	6018,93
575,273	6259,2
575,61	6508,83
575,947	6753,77
576,284	7000,71
576,621	7245,57
576,958	7495,55
577,295	7738,62
577,632	7981,99
577,969	8224,89
578,305	8464,23
578,642	8692,05
578,979	8919,22
579,315	9132
579,652	9336,38
579,988	9526,4
580,325	9711,77
580,661	9877,63
580,997	10033,03
581,334	10176,88
581,67	10298,18
582,006	10396,8
582,342	10487,73
582,678	10555,29
583,014	10606,97
583,35	10649,29
583,686	10671,13
584,022	10662,46
584,358	10644,29
584,694	10616,54
585,029	10560,4
585,365	10498,83
585,701	10423,41
586,036	10327,06
586,372	10226,11
586,707	10112,26
587,043	9977,83
587,378	9837,15
587,714	9699,11
588,049	9546,96
588,384	9381,3
588,719	9215,99
589,054	9036,28
589,39	8857,99
589,725	8678,43
590,06	8485,61
590,395	8294,11
590,729	8110,59
591,064	7924,01
591,399	7732,66
591,734	7547,32
592,069	7358,4
592,403	7175,98
592,738	6995,6
593,073	6820,39
593,407	6650,9
593,742	6483,91
594,076	6317,59
594,41	6154,26
594,745	6000,65
595,079	5846,66
595,413	5696,1
595,747	5553,81
596,081	5416
596,416	5281,47
596,75	5148,73
597,084	5021,23
597,418	4902,34
597,751	4782,69
598,085	4668,2
598,419	4555,8
598,753	4453,78
599,086	4354,76
599,42	4254,67
599,754	4155,03
600,087	4063,79
600,421	3980,27
600,754	3895,84
601,088	3812
601,421	3737,49
601,754	3661,18
602,088	3587,91
602,421	3514,63
602,754	3444,67
603,087	3381,06
603,42	3320,58
603,753	3259,9
604,086	3199,78
604,419	3139,44
604,752	3086,49
605,085	3033,81
605,417	2984,04
605,75	2932,5
606,083	2887,22
606,415	2840,7
606,748	2797,26
607,08	2755,49
607,413	2716,44
607,745	2677,67
608,078	2646,69
608,41	2609,1
608,742	2572,63
609,074	2541,68
609,407	2510,39
609,739	2479,72
610,071	2451,73
610,403	2425
610,735	2400,11
611,067	2375,49
611,399	2351,78
611,73	2325,65
612,062	2305,03
612,394	2284,31
612,726	2264,27
613,057	2246,81
613,389	2229,14
613,72	2211,99
614,052	2194,31
614,383	2178,91
614,715	2163,74
615,046	2148,69
615,377	2136,98
615,708	2123,43
616,04	2117,49
616,371	2109,82
616,702	2099,88
617,033	2095,58
617,364	2090,22
617,695	2085,97
618,026	2083,15
618,356	2082,97
618,687	2086,5
619,018	2089,91
619,349	2097,76
619,679	2098,24
620,01	2099,57
620,34	2106,37
620,671	2111,5
621,001	2118,42
621,332	2127,81
621,662	2134,08
621,992	2139,36
622,322	2143,71
622,653	2149,95
622,983	2152,92
623,313	2160,6
623,643	2168,51
623,973	2176,57
624,303	2184,16
624,633	2189,91
624,962	2195,07
625,292	2199,86
625,622	2205,47
625,952	2210,13
626,281	2215,64
626,611	2224,77
626,94	2229,93
627,27	2234,78
627,599	2240,34
627,929	2242,77
628,258	2244,82
628,587	2248,16
628,916	2253,7
629,246	2261,55
629,575	2264,21
629,904	2262,52
630,233	2260,59
630,562	2264,51
630,891	2264,39
631,22	2265,98
631,548	2265,54
631,877	2268,06
632,206	2267,18
632,535	2262,51
632,863	2257,09
633,192	2255,29
633,52	2256,47
633,849	2250,69
634,177	2238,25
634,506	2233,07
634,834	2222,37
635,162	2214,77
635,49	2203,14
635,819	2191,99
636,147	2182,7
636,475	2169,53
636,803	2157,77
637,131	2141,1
637,459	2125,5
637,787	2106,78
638,114	2088
638,442	2068,11
638,77	2047,5
639,098	2028,49
639,425	2007,83
639,753	1982,58
640,08	1957,09
640,408	1928,51
640,735	1903,68
641,062	1878,84
641,39	1855,53
641,717	1827,48
642,044	1798,93
642,371	1772,68
642,699	1744,18
643,026	1712,75
643,353	1686,42
643,68	1659,15
644,006	1631,03
644,333	1596,71
644,66	1565,81
644,987	1537,82
645,314	1510,55
645,64	1481,99
645,967	1452,94
646,293	1423,36
646,62	1400,39
646,946	1368,64
647,273	1341,65
647,599	1314,04
647,925	1290,55
648,252	1262,7
648,578	1236,67
648,904	1209,88
649,23	1185,68
649,556	1158,14
649,882	1133,59
650,208	1106,95
650,534	1086,58
650,86	1063,5
651,185	1039,34
