Data from Subt4__39__39.txt Node

Date: Fri Jun 07 14:39:37 CEST 2024
User: Naturwissenschaft
Spectrometer: FLMS00572
Trigger mode: 0
Integration Time (sec): 5,000000E-2
Scans to average: 20
Electric dark correction enabled: true
Nonlinearity correction enabled: false
Boxcar width: 5
XAxis mode: Wavelengths
Number of Pixels in Spectrum: 2048
>>>>>Begin Spectral Data<<<<<
190,164	-8,32
190,544	-4,85
190,925	-5,04
191,306	-4,32
191,687	-2,82
192,067	-5,04
192,448	-2,53
192,829	-2,02
193,209	-1,39
193,59	-2,64
193,97	-1,44
194,351	1,27
194,731	1,2
195,112	1,82
195,492	0,76
195,872	-0,09
196,253	1,63
196,633	1,48
197,013	3,79
197,393	3,76
197,773	5,88
198,154	5,4
198,534	6,19
198,914	4,44
199,294	2,92
199,674	2,22
200,054	3,18
200,434	4,83
200,814	4,19
201,194	2,89
201,573	2,39
201,953	1,7
202,333	-0,07
202,713	-1,47
203,092	-0,64
203,472	0,67
203,852	4,24
204,231	3,89
204,611	3,17
204,99	3,63
205,37	2,98
205,749	7,25
206,129	7,67
206,508	10,74
206,887	9,66
207,267	7,55
207,646	8,64
208,025	6,88
208,405	6,67
208,784	6,61
209,163	5,15
209,542	5,49
209,921	-0,21
210,3	0,13
210,679	-1,55
211,058	-0,73
211,437	2,73
211,816	1,22
212,195	0,98
212,574	2
212,952	1,83
213,331	2,17
213,71	2,88
214,089	5,67
214,467	5,45
214,846	6,24
215,225	6,98
215,603	5,66
215,982	7,14
216,36	7,74
216,739	6,12
217,117	6,09
217,495	6,56
217,874	6,06
218,252	4,19
218,63	3,03
219,009	3,4
219,387	2,11
219,765	3,22
220,143	3,89
220,521	5,04
220,899	4,42
221,277	4,91
221,655	3,82
222,033	2,45
222,411	3,99
222,789	3,56
223,167	3,32
223,545	4,11
223,923	3,47
224,301	1,22
224,678	1,73
225,056	1,32
225,434	1,05
225,811	2,64
226,189	2,8
226,566	3,04
226,944	6,24
227,321	4,31
227,699	4,18
228,076	3,89
228,454	5,72
228,831	3,88
229,208	5
229,586	4,37
229,963	4,86
230,34	6,43
230,717	7,58
231,094	4,53
231,471	6,81
231,848	4,89
232,225	4,63
232,602	4,65
232,979	5,4
233,356	3,43
233,733	5,93
234,11	4,7
234,487	3,53
234,864	1,25
235,24	2,92
235,617	1,07
235,994	1,89
236,37	0,74
236,747	2,45
237,124	2,72
237,5	4,48
237,877	1,09
238,253	0,25
238,63	0,42
239,006	3,05
239,382	2,38
239,759	3,44
240,135	3,79
240,511	6,98
240,887	3,3
241,264	1,66
241,64	2,81
242,016	5,8
242,392	5,89
242,768	5,28
243,144	5
243,52	4,42
243,896	6,34
244,272	8,87
244,648	7,94
245,023	8,59
245,399	11,01
245,775	10,31
246,151	9,08
246,526	7,9
246,902	7,63
247,278	3,35
247,653	3,78
248,029	4,5
248,404	2,81
248,78	1,62
249,155	1,47
249,53	-0,28
249,906	1,08
250,281	2,81
250,656	4,58
251,032	5,96
251,407	7,89
251,782	8,53
252,157	6,99
252,532	10,4
252,907	11,48
253,282	10,57
253,657	10,15
254,032	9,45
254,407	8,3
254,782	9,13
255,157	7,4
255,532	8,77
255,907	9,98
256,281	9,51
256,656	6,92
257,031	7,32
257,405	6,14
257,78	6,51
258,155	7,45
258,529	6,97
258,904	4,63
259,278	6,91
259,652	6,77
260,027	6,95
260,401	6,51
260,775	6,46
261,15	4,41
261,524	7,32
261,898	8,31
262,272	7,06
262,646	7,02
263,021	8,96
263,395	9,31
263,769	7,64
264,143	7,23
264,517	7,38
264,89	6,99
265,264	5,5
265,638	7,05
266,012	5,9
266,386	4,58
266,76	1,97
267,133	0,84
267,507	-1,58
267,88	-0,16
268,254	-0,93
268,628	-1,44
269,001	-2,8
269,375	0,93
269,748	0,31
270,121	-0,06
270,495	2,4
270,868	4,7
271,241	7,03
271,615	8,07
271,988	7,07
272,361	6,52
272,734	6,52
273,107	8,84
273,48	6,2
273,853	3,53
274,226	4,09
274,599	1,74
274,972	3,33
275,345	3,72
275,718	2,69
276,091	3,61
276,464	5,49
276,836	5,42
277,209	4,99
277,582	5,67
277,954	7,61
278,327	6,61
278,7	9,8
279,072	9,22
279,445	9,07
279,817	9,97
280,189	8,44
280,562	7,63
280,934	9,21
281,306	9,97
281,679	11,04
282,051	11,2
282,423	10,81
282,795	9,6
283,167	10,5
283,539	9,77
283,911	8,23
284,283	9,06
284,655	9,52
285,027	9,87
285,399	8,5
285,771	8,25
286,143	7,18
286,515	8,66
286,886	6,88
287,258	4,39
287,63	4
288,001	4,81
288,373	7
288,745	3,42
289,116	2,11
289,488	0,83
289,859	0,27
290,23	-0,49
290,602	-0,55
290,973	-2,29
291,344	0,87
291,716	-1,24
292,087	-0,91
292,458	-3,34
292,829	-1,25
293,2	-0,23
293,571	0,79
293,942	0,54
294,313	2,71
294,684	2,45
295,055	5,23
295,426	3,32
295,797	6,68
296,168	7,85
296,539	8,04
296,909	9,96
297,28	8,84
297,651	9,51
298,021	9,21
298,392	10,09
298,763	9,74
299,133	8,65
299,503	8
299,874	4,46
300,244	2,79
300,615	3,37
300,985	1,2
301,355	1,42
301,726	1,89
302,096	2,18
302,466	1,25
302,836	1,32
303,206	2,81
303,576	3,03
303,946	5,23
304,316	6,46
304,686	8,14
305,056	8,09
305,426	5,31
305,796	5,11
306,166	4,72
306,535	3,35
306,905	3,69
307,275	2,33
307,644	2,73
308,014	1,71
308,383	0,12
308,753	-1,34
309,122	-1,47
309,492	2,16
309,861	3,23
310,231	3,5
310,6	4,5
310,969	5,48
311,339	6,65
311,708	6,95
312,077	7,66
312,446	8,37
312,815	7,73
313,184	7,62
313,553	5,55
313,922	6,5
314,291	7,53
314,66	8,59
315,029	8,05
315,398	7,27
315,767	6,91
316,136	5,96
316,504	5,07
316,873	6,03
317,242	6,29
317,61	7,45
317,979	5,89
318,347	4,26
318,716	2,49
319,084	4,1
319,453	5,78
319,821	5,74
320,189	8,68
320,558	10,94
320,926	11,42
321,294	11,55
321,662	11,32
322,031	11,94
322,399	13,08
322,767	15,18
323,135	13,45
323,503	11,76
323,871	13,2
324,239	10,59
324,607	9,52
324,974	10,18
325,342	12,47
325,71	12,9
326,078	12,08
326,445	12,05
326,813	10,62
327,181	10,33
327,548	11,94
327,916	9,58
328,283	8,31
328,651	8,94
329,018	4,84
329,385	4,1
329,753	4,04
330,12	2,19
330,487	1,22
330,855	1,87
331,222	0,52
331,589	-0,95
331,956	-0,26
332,323	-0,17
332,69	-0,76
333,057	2,01
333,424	-0,05
333,791	0,53
334,158	0,99
334,525	2,45
334,892	1,39
335,258	-0,92
335,625	-0,51
335,992	-0,26
336,358	0,23
336,725	0,33
337,091	-1,01
337,458	-0,26
337,824	-1,04
338,191	-2,21
338,557	-1,93
338,924	-1,9
339,29	1,68
339,656	0,69
340,023	-0,92
340,389	0,62
340,755	1,86
341,121	3,41
341,487	2,66
341,853	3,1
342,219	6,31
342,585	5,4
342,951	5,43
343,317	7,16
343,683	8,14
344,049	8,88
344,415	8,21
344,78	6,71
345,146	8,58
345,512	10,59
345,877	11,56
346,243	10,58
346,608	10,88
346,974	13,17
347,339	13,44
347,705	13,33
348,07	13,73
348,436	15,51
348,801	17,34
349,166	15,31
349,531	14,29
349,897	13,7
350,262	13,62
350,627	13,67
350,992	12,76
351,357	11,66
351,722	8,85
352,087	10,47
352,452	10,91
352,817	9,05
353,181	9,41
353,546	8,01
353,911	4,5
354,276	4
354,64	3,44
355,005	3,48
355,37	2,7
355,734	5,87
356,099	3,98
356,463	2,87
356,828	3,68
357,192	1,38
357,556	2,33
357,921	5,93
358,285	5,75
358,649	6,2
359,013	7,78
359,378	9,05
359,742	9,74
360,106	10,77
360,47	9,71
360,834	9,29
361,198	12,07
361,562	12,17
361,926	11,23
362,289	12,07
362,653	14,01
363,017	9,95
363,381	9,77
363,744	9,71
364,108	10,6
364,472	10,76
364,835	11,65
365,199	11,65
365,562	12,72
365,926	11,27
366,289	10,24
366,652	9,37
367,016	11,29
367,379	10,78
367,742	10,23
368,105	8,97
368,469	9,35
368,832	9,81
369,195	8,89
369,558	7,89
369,921	7,79
370,284	8,03
370,647	7,56
371,01	7,04
371,372	5,98
371,735	5,4
372,098	3,96
372,461	2,79
372,823	4,39
373,186	6,74
373,549	6,55
373,911	8,38
374,274	6,99
374,636	5,85
374,999	6,85
375,361	6,59
375,723	7,46
376,086	10,17
376,448	10,71
376,81	6,64
377,172	4,33
377,535	5,24
377,897	2,26
378,259	4,19
378,621	4,37
378,983	2,73
379,345	5,07
379,707	5,59
380,068	3,94
380,43	4,84
380,792	6
381,154	5,25
381,516	4,27
381,877	8,14
382,239	6,89
382,6	7,66
382,962	8,28
383,323	8,46
383,685	8,03
384,046	6,36
384,408	7,72
384,769	9,02
385,13	9,74
385,492	11,05
385,853	9,81
386,214	11,66
386,575	10,31
386,936	8,11
387,297	5,43
387,658	5,44
388,019	9,19
388,38	7,53
388,741	5,77
389,102	6,47
389,463	6,51
389,823	6,93
390,184	7,07
390,545	9,63
390,906	10,49
391,266	12,2
391,627	11,34
391,987	8,76
392,348	9,72
392,708	12,02
393,069	10,48
393,429	7,61
393,789	8,37
394,15	6,09
394,51	6,06
394,87	7,85
395,23	7,51
395,59	7,37
395,95	7,7
396,31	5,2
396,67	3,68
397,03	6,35
397,39	10,8
397,75	10,84
398,11	10,46
398,47	7,23
398,829	7,84
399,189	8,06
399,549	10,73
399,908	13,54
400,268	15,94
400,627	16,46
400,987	13,22
401,346	9,65
401,706	11,37
402,065	18,16
402,424	35,07
402,784	76,53
403,143	182,05
403,502	404,89
403,861	692,55
404,221	908,22
404,58	1041,87
404,939	1119,37
405,298	1156,26
405,657	1165,32
406,015	1165,62
406,374	1152,97
406,733	1111,4
407,092	1006,16
407,451	782,29
407,809	492,33
408,168	274,65
408,527	140,33
408,885	64,79
409,244	30,14
409,602	18,24
409,961	14,16
410,319	12,58
410,678	11,12
411,036	11
411,394	9,58
411,752	9,23
412,111	11,02
412,469	9,98
412,827	9,82
413,185	8,78
413,543	7,42
413,901	7,24
414,259	7,32
414,617	10,03
414,975	10,34
415,333	9,8
415,69	8,98
416,048	8,02
416,406	9,76
416,763	9,32
417,121	10,81
417,479	14,16
417,836	11,17
418,194	11,14
418,551	8,57
418,909	7,4
419,266	9,11
419,623	12,76
419,981	14,34
420,338	14,18
420,695	16,07
421,052	16,89
421,409	15,44
421,766	19,04
422,123	18,27
422,48	21,09
422,837	23,24
423,194	23,15
423,551	20,38
423,908	19,24
424,265	20,71
424,621	19,93
424,978	19,67
425,335	22,32
425,691	21,93
426,048	24,95
426,404	25,47
426,761	23,72
427,117	23,32
427,474	25,62
427,83	24,48
428,186	23,13
428,543	23,65
428,899	23,29
429,255	20,4
429,611	22,01
429,967	20,64
430,323	19,64
430,679	22,01
431,035	22,51
431,391	22,58
431,747	25,63
432,103	27,64
432,459	28,13
432,815	29,27
433,17	33,85
433,526	32,23
433,882	33,15
434,237	32,92
434,593	34,35
434,948	34,44
435,304	36,46
435,659	36,35
436,014	35,76
436,37	36,69
436,725	35,86
437,08	34,2
437,436	37,1
437,791	35,35
438,146	34,56
438,501	32,37
438,856	33,57
439,211	32,29
439,566	32,15
439,921	33,06
440,276	31,76
440,63	32,39
440,985	32,42
441,34	33,48
441,695	36,56
442,049	36,65
442,404	36,77
442,758	37,87
443,113	39,22
443,467	40,85
443,822	41,07
444,176	40,76
444,531	41,78
444,885	40,81
445,239	38,14
445,593	35,61
445,948	38,36
446,302	40,5
446,656	40,59
447,01	40,42
447,364	38,41
447,718	37,84
448,072	38,99
448,426	39,69
448,779	43,18
449,133	45,52
449,487	47
449,841	47,1
450,194	45,17
450,548	45,84
450,902	45,93
451,255	48,21
451,609	52,01
451,962	54,68
452,315	53,4
452,669	53,77
453,022	53,31
453,375	52,81
453,729	52,43
454,082	56,11
454,435	56,83
454,788	57,36
455,141	56,45
455,494	55,42
455,847	55,32
456,2	56
456,553	53,22
456,906	53,46
457,258	55,47
457,611	56,56
457,964	57,19
458,316	57,8
458,669	60,15
459,022	62,75
459,374	61,51
459,727	61,18
460,079	61,05
460,432	62,07
460,784	63,04
461,136	62,94
461,488	63,44
461,841	59,44
462,193	61,08
462,545	61,44
462,897	61,29
463,249	64,12
463,601	64,64
463,953	66,71
464,305	69,08
464,657	67,81
465,009	69,24
465,361	68,08
465,712	70,65
466,064	69,63
466,416	67,46
466,767	68,27
467,119	66,26
467,47	67,71
467,822	67,87
468,173	67,55
468,525	70,09
468,876	68,66
469,227	71,16
469,579	73,94
469,93	73,47
470,281	73,42
470,632	73,91
470,983	72,55
471,334	72,66
471,685	72,64
472,036	73,18
472,387	73,6
472,738	75,98
473,089	74,12
473,44	71,49
473,79	72,94
474,141	72,66
474,492	72,4
474,842	75,19
475,193	75,2
475,543	74,8
475,894	74,42
476,244	74,03
476,595	71,48
476,945	74,97
477,295	76,71
477,645	75,53
477,996	81,56
478,346	81,52
478,696	83,04
479,046	83,02
479,396	85,82
479,746	87,59
480,096	88,58
480,446	91,34
480,796	92,8
481,145	96,19
481,495	98,72
481,845	95,9
482,195	96,29
482,544	96,25
482,894	99,05
483,243	101,35
483,593	100,26
483,942	102,67
484,292	102,99
484,641	102,63
484,99	100,94
485,34	101,8
485,689	100,86
486,038	103,07
486,387	104,67
486,736	102,67
487,085	103,42
487,434	106,55
487,783	107,3
488,132	109,25
488,481	109,38
488,83	110,02
489,179	111,86
489,527	117,75
489,876	120,27
490,225	122,95
490,573	125,77
490,922	124,89
491,27	127,01
491,619	128,82
491,967	131,19
492,316	133,19
492,664	136,55
493,012	138,86
493,361	136,01
493,709	136,38
494,057	138,62
494,405	141,48
494,753	146,56
495,101	149,79
495,449	150,88
495,797	157,57
496,145	164,43
496,493	169,09
496,84	173,07
497,188	180,99
497,536	190,33
497,884	195,38
498,231	203,26
498,579	211,11
498,926	218,63
499,274	230,25
499,621	236,02
499,969	243,82
500,316	256,79
500,663	270,07
501,01	282,57
501,358	294,53
501,705	309,65
502,052	326,86
502,399	344,01
502,746	361,16
503,093	379,84
503,44	403,8
503,787	427,62
504,134	452,57
504,481	477,53
504,827	508,36
505,174	537,42
505,521	570,31
505,867	601,55
506,214	638,16
506,56	679,21
506,907	719,37
507,253	760,14
507,6	806,26
507,946	850,44
508,292	899,02
508,639	949,11
508,985	1005,52
509,331	1063,97
509,677	1126,25
510,023	1188,18
510,369	1255,52
510,715	1323,32
511,061	1394,6
511,407	1466,22
511,753	1543,4
512,099	1619,34
512,444	1694,51
512,79	1770,73
513,136	1848,18
513,481	1928,37
513,827	2006,68
514,172	2081
514,518	2160,68
514,863	2240,32
515,209	2316,11
515,554	2386,93
515,899	2456,61
516,245	2527,38
516,59	2593,84
516,935	2658,1
517,28	2713,61
517,625	2766,66
517,97	2818,2
518,315	2859,09
518,66	2894,75
519,005	2925,47
519,35	2949,71
519,695	2974,38
520,039	2988,17
520,384	2999,02
520,729	2999,3
521,073	2996,95
521,418	2990,07
521,762	2971,25
522,107	2951,37
522,451	2923,86
522,796	2895,37
523,14	2864,62
523,484	2826,79
523,829	2787,81
524,173	2746,27
524,517	2707,29
524,861	2663,28
525,205	2614,12
525,549	2572,11
525,893	2526,98
526,237	2480,07
526,581	2432,28
526,925	2386,22
527,269	2339,16
527,612	2292,48
527,956	2242,85
528,3	2195,24
528,643	2147,86
528,987	2103,26
529,33	2061,06
529,674	2018,05
530,017	1978,31
530,36	1941,14
530,704	1901,16
531,047	1865,55
531,39	1834,08
531,733	1803,06
532,077	1766,65
532,42	1736,2
532,763	1705,61
533,106	1670,32
533,449	1641,77
533,792	1614,79
534,134	1585,57
534,477	1562,07
534,82	1535,81
535,163	1508,45
535,505	1483,93
535,848	1461,98
536,191	1439,5
536,533	1421,2
536,876	1404,96
537,218	1384,66
537,56	1367,41
537,903	1349,78
538,245	1330,78
538,587	1315,4
538,93	1298,77
539,272	1283,98
539,614	1268,27
539,956	1256,02
540,298	1237,98
540,64	1222,16
540,982	1211,11
541,324	1195,3
541,666	1184,44
542,007	1171,73
542,349	1159,95
542,691	1149,91
543,032	1139,24
543,374	1129,01
543,716	1117,73
544,057	1112,05
544,398	1106,17
544,74	1096,35
545,081	1090,77
545,423	1082,32
545,764	1076,3
546,105	1070,67
546,446	1064,79
546,787	1058
547,128	1054,78
547,469	1055,01
547,81	1053,18
548,151	1049,7
548,492	1048,17
548,833	1047,97
549,174	1049,87
549,515	1053,05
549,855	1054,47
550,196	1054,38
550,537	1058,15
550,877	1062,72
551,218	1062,57
551,558	1064,16
551,899	1066,54
552,239	1071,77
552,579	1075,62
552,92	1076,89
553,26	1078,97
553,6	1082,08
553,94	1088,95
554,28	1093,51
554,62	1098,58
554,96	1103,81
555,3	1111,74
555,64	1117,94
555,98	1124,73
556,32	1129,74
556,66	1139,38
556,999	1150,33
557,339	1160,46
557,679	1171,72
558,018	1184,13
558,358	1193,44
558,697	1207,56
559,037	1222,34
559,376	1239,1
559,715	1256,53
560,055	1277,52
560,394	1300,09
560,733	1321,51
561,072	1345,04
561,411	1369,56
561,75	1395,78
562,089	1428,77
562,428	1463,51
562,767	1496,72
563,106	1534,76
563,445	1572,93
563,784	1615,37
564,122	1660,45
564,461	1711,39
564,8	1765,84
565,138	1825,85
565,477	1888,86
565,815	1952,31
566,154	2019,08
566,492	2094,92
566,83	2174,46
567,169	2255,35
567,507	2349,09
567,845	2443,64
568,183	2542,93
568,521	2646,95
568,859	2757,84
569,197	2872,42
569,535	2997,54
569,873	3124,8
570,211	3260,83
570,549	3404,21
570,887	3558,96
571,224	3708,26
571,562	3868,92
571,9	4035,85
572,237	4208,1
572,575	4389,87
572,912	4578,95
573,25	4767,35
573,587	4968,57
573,924	5172,07
574,262	5384,07
574,599	5596,39
574,936	5813,87
575,273	6037,52
575,61	6259,78
575,947	6486,42
576,284	6709,8
576,621	6932,12
576,958	7163,21
577,295	7389,64
577,632	7610,72
577,969	7824,57
578,305	8037,49
578,642	8239,9
578,979	8432,36
579,315	8627,02
579,652	8806,89
579,988	8974,41
580,325	9139,62
580,661	9281,98
580,997	9409,35
581,334	9527,08
581,67	9630,68
582,006	9715,5
582,342	9794,48
582,678	9852,79
583,014	9884,83
583,35	9914,15
583,686	9924,86
584,022	9910,32
584,358	9888,73
584,694	9854,7
585,029	9802,46
585,365	9730,9
585,701	9649,42
586,036	9554,19
586,372	9453,78
586,707	9348,73
587,043	9222,44
587,378	9087,64
587,714	8952,02
588,049	8803,03
588,384	8649,34
588,719	8492,02
589,054	8328,34
589,39	8162,96
589,725	7997,13
590,06	7824,63
590,395	7651,57
590,729	7483
591,064	7311,92
591,399	7140,63
591,734	6974,22
592,069	6805,48
592,403	6640,18
592,738	6478,92
593,073	6321,52
593,407	6162,62
593,742	6008,7
594,076	5855,54
594,41	5705
594,745	5562,51
595,079	5421,67
595,413	5283,48
595,747	5151,88
596,081	5021,55
596,416	4900,17
596,75	4782,41
597,084	4670,37
597,418	4558,44
597,751	4447,89
598,085	4343,4
598,419	4245,12
598,753	4149,41
599,086	4058,74
599,42	3967,35
599,754	3880,66
600,087	3794,06
600,421	3711,81
600,754	3630,04
601,088	3551,29
601,421	3484,25
601,754	3415,12
602,088	3346,76
602,421	3278,57
602,754	3213,77
603,087	3150,06
603,42	3087,35
603,753	3032,77
604,086	2978,44
604,419	2926,83
604,752	2879,99
605,085	2825,13
605,417	2777,23
605,75	2731,12
606,083	2689,89
606,415	2648,46
606,748	2610,99
607,08	2576,68
607,413	2541,33
607,745	2504,94
608,078	2470,16
608,41	2437,79
608,742	2405,45
609,074	2377,48
609,407	2347,78
609,739	2318,14
610,071	2288,58
610,403	2263,64
610,735	2238,74
611,067	2213,36
611,399	2191,64
611,73	2167,52
612,062	2145,4
612,394	2130,55
612,726	2110,69
613,057	2094,13
613,389	2076,09
613,72	2063,61
614,052	2047,1
614,383	2034,04
614,715	2020,82
615,046	2005,8
615,377	2000,2
615,708	1990,64
616,04	1981,75
616,371	1973,18
616,702	1964,24
617,033	1963
617,364	1958,94
617,695	1954,5
618,026	1952,14
618,356	1950,56
618,687	1953,14
619,018	1953,46
619,349	1954,99
619,679	1956,13
620,01	1959,57
620,34	1964,03
620,671	1968,08
621,001	1971,22
621,332	1978,44
621,662	1981,35
621,992	1984,57
622,322	1990,73
622,653	1993,32
622,983	1999,22
623,313	2005,92
623,643	2010,96
623,973	2018,02
624,303	2023,67
624,633	2032,53
624,962	2038,5
625,292	2044,46
625,622	2049,21
625,952	2054,19
626,281	2063,93
626,611	2071,85
626,94	2074,38
627,27	2079,16
627,599	2083,16
627,929	2084,2
628,258	2084,5
628,587	2086,62
628,916	2091,5
629,246	2098,51
629,575	2100,72
629,904	2098,21
630,233	2096,57
630,562	2098,85
630,891	2096,6
631,22	2097,87
631,548	2096,09
631,877	2096,16
632,206	2095,71
632,535	2091,91
632,863	2088,25
633,192	2084,94
633,52	2079,7
633,849	2074,41
634,177	2067,4
634,506	2063,18
634,834	2052,87
635,162	2046,79
635,49	2035,86
635,819	2022,11
636,147	2009,19
636,475	1995,44
636,803	1980,85
637,131	1966,42
637,459	1949,19
637,787	1933,58
638,114	1913,44
638,442	1894,69
638,77	1875,49
639,098	1855,68
639,425	1838,55
639,753	1818,48
640,08	1796,18
640,408	1775,62
640,735	1753,94
641,062	1730,06
641,39	1704,59
641,717	1684,55
642,044	1660,27
642,371	1637,6
642,699	1610,66
643,026	1582,86
643,353	1556,18
643,68	1533,43
644,006	1503,59
644,333	1475,02
644,66	1448,68
644,987	1424,66
645,314	1396,91
645,64	1369,22
645,967	1341,54
646,293	1315,05
646,62	1288,74
646,946	1261,46
647,273	1232,77
647,599	1207,48
647,925	1183,93
648,252	1160,4
648,578	1134,35
648,904	1110,1
649,23	1088,49
649,556	1063,7
649,882	1040,45
