Data from Subt4__27__27.txt Node

Date: Fri Jun 07 14:39:25 CEST 2024
User: Naturwissenschaft
Spectrometer: FLMS00572
Trigger mode: 0
Integration Time (sec): 5,000000E-2
Scans to average: 20
Electric dark correction enabled: true
Nonlinearity correction enabled: false
Boxcar width: 5
XAxis mode: Wavelengths
Number of Pixels in Spectrum: 2048
>>>>>Begin Spectral Data<<<<<
190,164	-3,96
190,544	-2,51
190,925	-3,05
191,306	-2,37
191,687	-2,95
192,067	-4,15
192,448	-3,09
192,829	-2,08
193,209	-1,16
193,59	-2,2
193,97	-2,66
194,351	-2,72
194,731	-2,39
195,112	-2,64
195,492	-2,42
195,872	-0,37
196,253	1,77
196,633	3,68
197,013	5,21
197,393	5,93
197,773	7,81
198,154	6,96
198,534	8,16
198,914	6,63
199,294	6,78
199,674	5,14
200,054	3,96
200,434	3,69
200,814	3,96
201,194	3,6
201,573	2,41
201,953	1,09
202,333	0,86
202,713	-1,57
203,092	-2,03
203,472	-1,54
203,852	2,67
204,231	3,57
204,611	3,74
204,99	2,03
205,37	2,37
205,749	4,87
206,129	7,58
206,508	9,47
206,887	10,44
207,267	10,81
207,646	10,09
208,025	7,66
208,405	6,14
208,784	6,16
209,163	6,86
209,542	7,18
209,921	3,74
210,3	2,48
210,679	0,53
211,058	-0,38
211,437	2,86
211,816	4,14
212,195	2,7
212,574	4,77
212,952	4,18
213,331	4,09
213,71	3,33
214,089	4,19
214,467	4,34
214,846	4,66
215,225	5,87
215,603	3,06
215,982	3,89
216,36	4,77
216,739	3,92
217,117	4,09
217,495	4,36
217,874	1,95
218,252	2,61
218,63	0,81
219,009	2,47
219,387	1,06
219,765	2,05
220,143	0,85
220,521	0,92
220,899	-0,47
221,277	0,66
221,655	0,71
222,033	2,11
222,411	4,63
222,789	4,65
223,167	4,28
223,545	6,34
223,923	8,1
224,301	7,82
224,678	9,42
225,056	9,61
225,434	6,58
225,811	6,9
226,189	6,31
226,566	2,7
226,944	5,41
227,321	4,56
227,699	2,05
228,076	0,43
228,454	0,15
228,831	0,87
229,208	-0,66
229,586	1,01
229,963	1,01
230,34	2,81
230,717	5,7
231,094	2,75
231,471	3,36
231,848	4,83
232,225	3,72
232,602	5,67
232,979	3,11
233,356	5,7
233,733	6,6
234,11	4,75
234,487	4,94
234,864	3,16
235,24	3,86
235,617	0,71
235,994	-0,58
236,37	0,93
236,747	1,33
237,124	2,86
237,5	1,86
237,877	0,25
238,253	1,58
238,63	0,58
239,006	3,31
239,382	4
239,759	8,66
240,135	10,06
240,511	9,5
240,887	8,2
241,264	5,83
241,64	5,75
242,016	6,59
242,392	5,47
242,768	5,95
243,144	5,13
243,52	3,68
243,896	2,62
244,272	3,48
244,648	4,83
245,023	5,1
245,399	7,97
245,775	8,94
246,151	9,96
246,526	11,59
246,902	10,84
247,278	7,54
247,653	7,12
248,029	7,4
248,404	6,8
248,78	6,91
249,155	5,2
249,53	2,67
249,906	4,74
250,281	5,24
250,656	4,48
251,032	4,77
251,407	9
251,782	10,66
252,157	8,92
252,532	9,82
252,907	8,39
253,282	10,08
253,657	10,9
254,032	10,01
254,407	9,38
254,782	8,92
255,157	8,3
255,532	6,33
255,907	8,31
256,281	10,31
256,656	8,8
257,031	9,88
257,405	8,34
257,78	8,09
258,155	6,09
258,529	4,32
258,904	3,8
259,278	4,81
259,652	5,73
260,027	4,34
260,401	3,8
260,775	4,84
261,15	3,52
261,524	3,13
261,898	2,92
262,272	2,93
262,646	3,9
263,021	5,34
263,395	6,39
263,769	3,99
264,143	6,42
264,517	4,66
264,89	2,92
265,264	1,37
265,638	4,23
266,012	4,75
266,386	4,8
266,76	4,42
267,133	3,35
267,507	0,27
267,88	0,45
268,254	-2,34
268,628	-1,55
269,001	-0,6
269,375	0,66
269,748	0,75
270,121	1,24
270,495	2,42
270,868	3,47
271,241	3,15
271,615	4,62
271,988	5,1
272,361	3,38
272,734	2,07
273,107	2,45
273,48	2,47
273,853	-0,11
274,226	0,67
274,599	-0,15
274,972	-0,62
275,345	2,22
275,718	2,3
276,091	4,55
276,464	6,05
276,836	7,45
277,209	7,28
277,582	5,81
277,954	8,66
278,327	7,67
278,7	8,17
279,072	8,78
279,445	8,34
279,817	7,43
280,189	6,96
280,562	8,45
280,934	8,93
281,306	9,09
281,679	11,47
282,051	10,51
282,423	9,62
282,795	10,59
283,167	11,66
283,539	10,17
283,911	10,75
284,283	9,88
284,655	10,15
285,027	9,77
285,399	8,87
285,771	8,33
286,143	6
286,515	6,07
286,886	5,66
287,258	2,22
287,63	2,77
288,001	3,33
288,373	4,36
288,745	2,13
289,116	2,08
289,488	2,29
289,859	2,41
290,23	4,17
290,602	4,64
290,973	1,95
291,344	5,88
291,716	3,52
292,087	3,15
292,458	2,71
292,829	3,18
293,2	3,28
293,571	1,82
293,942	0,97
294,313	1,62
294,684	3,97
295,055	6,43
295,426	5,13
295,797	8,79
296,168	9,15
296,539	8,35
296,909	10,36
297,28	10,65
297,651	12,47
298,021	13,33
298,392	13,63
298,763	11,45
299,133	10,02
299,503	8,51
299,874	3,43
300,244	2,97
300,615	3,26
300,985	0,87
301,355	2,28
301,726	3,09
302,096	2,53
302,466	2,6
302,836	2,91
303,206	3,55
303,576	5,85
303,946	9,18
304,316	9,44
304,686	10,22
305,056	10,16
305,426	7,09
305,796	6,05
306,166	3,03
306,535	2,52
306,905	1,74
307,275	1,31
307,644	0,23
308,014	1,06
308,383	1,25
308,753	0,03
309,122	2,63
309,492	3,13
309,861	4,18
310,231	8,51
310,6	8,47
310,969	9,69
311,339	10,29
311,708	9,77
312,077	6,54
312,446	8,72
312,815	8,17
313,184	4,3
313,553	4,85
313,922	4,73
314,291	4,66
314,66	6,43
315,029	5,8
315,398	5,19
315,767	5,48
316,136	4,91
316,504	3,59
316,873	6,25
317,242	6,59
317,61	7,97
317,979	7,69
318,347	4,89
318,716	3,07
319,084	3,82
319,453	4,81
319,821	5,13
320,189	9,69
320,558	10,53
320,926	7,34
321,294	9,18
321,662	6,95
322,031	6,34
322,399	9,31
322,767	10,79
323,135	10,23
323,503	11,46
323,871	12,65
324,239	11,21
324,607	8,95
324,974	12,32
325,342	12,86
325,71	15,68
326,078	15,81
326,445	15,25
326,813	12,67
327,181	10,86
327,548	9,87
327,916	8,77
328,283	7,09
328,651	8,29
329,018	5
329,385	4,74
329,753	4,01
330,12	2,91
330,487	1,99
330,855	2,46
331,222	3,97
331,589	2,6
331,956	1,89
332,323	2,43
332,69	2,47
333,057	4,04
333,424	3,12
333,791	2,99
334,158	1,62
334,525	0,61
334,892	0,44
335,258	-1,45
335,625	1,26
335,992	1,15
336,358	1,35
336,725	-0
337,091	-1,09
337,458	-0
337,824	-2,97
338,191	-1,89
338,557	-0,6
338,924	-0,14
339,29	0,34
339,656	-2,34
340,023	-3,45
340,389	-2,43
340,755	-0,77
341,121	1,1
341,487	-0,37
341,853	2,2
342,219	2,99
342,585	2,86
342,951	4,08
343,317	5,5
343,683	8,27
344,049	8,65
344,415	9,36
344,78	6,84
345,146	6,26
345,512	8,23
345,877	8,6
346,243	10,41
346,608	10,58
346,974	10,19
347,339	11,68
347,705	10,53
348,07	11,48
348,436	11,85
348,801	12,6
349,166	11,81
349,531	11,8
349,897	12,29
350,262	11,05
350,627	10,06
350,992	10,38
351,357	8,44
351,722	7,05
352,087	6,58
352,452	5,48
352,817	3,43
353,181	3,36
353,546	1,94
353,911	-1,45
354,276	-1,38
354,64	-0,53
355,005	-0,81
355,37	-0
355,734	0,96
356,099	2,84
356,463	2,93
356,828	6,48
357,192	7,05
357,556	7,38
357,921	9,38
358,285	9,18
358,649	9,61
359,013	11,05
359,378	12,15
359,742	12,44
360,106	10,53
360,47	11,81
360,834	11,37
361,198	11,22
361,562	10,06
361,926	11,04
362,289	12,25
362,653	13,86
363,017	11,19
363,381	9,66
363,744	9,84
364,108	11,91
364,472	10,4
364,835	12,71
365,199	15,31
365,562	17,1
365,926	16,66
366,289	16,17
366,652	15,78
367,016	18,07
367,379	18,92
367,742	18,24
368,105	15,15
368,469	13,7
368,832	13,46
369,195	11,92
369,558	8,73
369,921	7,97
370,284	8,13
370,647	6,11
371,01	5,13
371,372	4,1
371,735	4,7
372,098	6,95
372,461	7,39
372,823	6,16
373,186	5,74
373,549	7,83
373,911	8,5
374,274	8,68
374,636	9,35
374,999	7,53
375,361	7,56
375,723	7,23
376,086	7,38
376,448	5,98
376,81	4,18
377,172	3,79
377,535	3,21
377,897	1,1
378,259	0,14
378,621	-0,7
378,983	-1,89
379,345	0,79
379,707	0,18
380,068	-0,67
380,43	1,44
380,792	3,5
381,154	2,95
381,516	3,78
381,877	6,94
382,239	10,07
382,6	12,72
382,962	16,29
383,323	14,23
383,685	15,45
384,046	14,55
384,408	15,83
384,769	15,2
385,13	17,67
385,492	16,9
385,853	15,53
386,214	15,11
386,575	13,14
386,936	10,39
387,297	9,62
387,658	8,02
388,019	10,7
388,38	10,04
388,741	9,33
389,102	6,85
389,463	8,15
389,823	9,42
390,184	8,14
390,545	7,73
390,906	9,14
391,266	10,15
391,627	10,25
391,987	10,62
392,348	11,62
392,708	12
393,069	14,23
393,429	11,96
393,789	10,82
394,15	10,25
394,51	12,37
394,87	12,72
395,23	12,39
395,59	11,94
395,95	9,16
396,31	8,88
396,67	7,81
397,03	9,15
397,39	12,24
397,75	12,45
398,11	10,63
398,47	8,02
398,829	8,62
399,189	8,1
399,549	11,15
399,908	14,59
400,268	15,89
400,627	14,8
400,987	9,53
401,346	7,66
401,706	11,34
402,065	16,74
402,424	29,02
402,784	58,26
403,143	140,79
403,502	312,36
403,861	522,17
404,221	670,36
404,58	767,79
404,939	825,21
405,298	852,04
405,657	858,55
406,015	857,99
406,374	847,56
406,733	818,5
407,092	737,69
407,451	567,71
407,809	355,34
408,168	203,83
408,527	110,5
408,885	55,05
409,244	29,42
409,602	19,58
409,961	17,11
410,319	17,31
410,678	17,52
411,036	16,77
411,394	13,46
411,752	13,95
412,111	17,79
412,469	15,36
412,827	17,36
413,185	17,27
413,543	17,84
413,901	16,19
414,259	17,44
414,617	17,79
414,975	17,91
415,333	18,82
415,69	16,09
416,048	13,9
416,406	15,86
416,763	16,82
417,121	16,73
417,479	17,91
417,836	20,54
418,194	18,83
418,551	17,49
418,909	17,21
419,266	16,92
419,623	20,87
419,981	21,91
420,338	21,62
420,695	20,76
421,052	23,8
421,409	23,37
421,766	23
422,123	20,72
422,48	22,51
422,837	22,67
423,194	22,24
423,551	21,32
423,908	21,45
424,265	23,37
424,621	22,38
424,978	20,19
425,335	20,77
425,691	19,88
426,048	21,54
426,404	21,48
426,761	22,62
427,117	23,69
427,474	23
427,83	20,86
428,186	20,66
428,543	23,26
428,899	25,03
429,255	23,47
429,611	25,81
429,967	28,56
430,323	29,51
430,679	31,32
431,035	31,78
431,391	33,33
431,747	37,06
432,103	36,51
432,459	35,89
432,815	35,63
433,17	37,41
433,526	36,76
433,882	35,65
434,237	35,78
434,593	35,37
434,948	35,19
435,304	36,59
435,659	34,65
436,014	32,92
436,37	36,97
436,725	37,89
437,08	37,68
437,436	38,08
437,791	38,33
438,146	36,78
438,501	33,65
438,856	34,45
439,211	34,41
439,566	34,78
439,921	35,72
440,276	30,94
440,63	29,5
440,985	30,25
441,34	29,98
441,695	32,88
442,049	35,42
442,404	37,72
442,758	38,64
443,113	40,72
443,467	45,12
443,822	45,11
444,176	44,38
444,531	45,99
444,885	43,9
445,239	45,54
445,593	44,4
445,948	43,26
446,302	43,52
446,656	44,23
447,01	42,58
447,364	39,78
447,718	39,96
448,072	42,11
448,426	43,11
448,779	45,2
449,133	44,37
449,487	44,66
449,841	47
450,194	46,31
450,548	46,32
450,902	48,18
451,255	50,17
451,609	54,18
451,962	55,04
452,315	55,78
452,669	57,64
453,022	61,38
453,375	60,42
453,729	57,64
454,082	61,12
454,435	60,78
454,788	59,97
455,141	58,09
455,494	57,5
455,847	56,79
456,2	57,47
456,553	56,9
456,906	53,04
457,258	55,52
457,611	58,27
457,964	58,88
458,316	59,13
458,669	62,15
459,022	63,14
459,374	60,6
459,727	61,95
460,079	58,3
460,432	59,28
460,784	61,03
461,136	60,85
461,488	60,22
461,841	58,37
462,193	60,84
462,545	60,57
462,897	62,59
463,249	68,69
463,601	68,98
463,953	71,58
464,305	73,68
464,657	73,04
465,009	73,97
465,361	74,52
465,712	75,04
466,064	74,25
466,416	73,38
466,767	73,4
467,119	70,72
467,47	70,78
467,822	71,37
468,173	70,02
468,525	73,28
468,876	72,39
469,227	74,15
469,579	77,87
469,93	76,83
470,281	75,33
470,632	76,31
470,983	75,13
471,334	76,54
471,685	77,87
472,036	78
472,387	76,77
472,738	77,05
473,089	77,1
473,44	74,97
473,79	77,14
474,141	79,29
474,492	78,64
474,842	81,63
475,193	83,23
475,543	83,13
475,894	85,43
476,244	86,77
476,595	86,58
476,945	86,15
477,295	87,48
477,645	87,28
477,996	90,62
478,346	89,19
478,696	89,48
479,046	89,57
479,396	93
479,746	92,35
480,096	90,64
480,446	92,99
480,796	94,66
481,145	96,31
481,495	97,21
481,845	95,75
482,195	96,19
482,544	95,25
482,894	95,17
483,243	94,35
483,593	93,73
483,942	96,4
484,292	97,37
484,641	98,5
484,99	97,07
485,34	100
485,689	99,03
486,038	103,51
486,387	105,9
486,736	104,45
487,085	105,39
487,434	108,68
487,783	111,23
488,132	114,52
488,481	116,81
488,83	120,51
489,179	120,75
489,527	125,35
489,876	127,78
490,225	130,29
490,573	134,53
490,922	136,45
491,27	138,49
491,619	139,26
491,967	142,33
492,316	145,42
492,664	149,42
493,012	154,49
493,361	154,55
493,709	156,62
494,057	162
494,405	166,69
494,753	172,77
495,101	178,63
495,449	186,15
495,797	192,5
496,145	200,04
496,493	207,41
496,84	214,43
497,188	225,8
497,536	238,83
497,884	247,59
498,231	260,38
498,579	273,89
498,926	287,62
499,274	302,8
499,621	316,17
499,969	330,13
500,316	346,96
500,663	366,36
501,01	385,52
501,358	407,03
501,705	430,41
502,052	453,96
502,399	478,94
502,746	506,71
503,093	536,78
503,44	573,45
503,787	610,46
504,134	650,91
504,481	691,83
504,827	739,02
505,174	783,85
505,521	833,87
505,867	887,22
506,214	942,02
506,56	1003,84
506,907	1067,14
507,253	1135,45
507,6	1209,9
507,946	1281,54
508,292	1361,09
508,639	1443,39
508,985	1534,86
509,331	1628,2
509,677	1728,43
510,023	1831,1
510,369	1935,39
510,715	2043,9
511,061	2152,84
511,407	2265,66
511,753	2387,12
512,099	2504,66
512,444	2627,89
512,79	2749,42
513,136	2874,79
513,481	3000,97
513,827	3133,94
514,172	3265,68
514,518	3395,04
514,863	3525,81
515,209	3648,49
515,554	3771,88
515,899	3896,07
516,245	4010,08
516,59	4121,55
516,935	4229,42
517,28	4329,55
517,625	4416,94
517,97	4498,34
518,315	4568,55
518,66	4628,45
519,005	4686,49
519,35	4729,66
519,695	4761,6
520,039	4786,84
520,384	4804,47
520,729	4808,89
521,073	4804,66
521,418	4793,29
521,762	4770,34
522,107	4744,19
522,451	4709,49
522,796	4661,76
523,14	4611,16
523,484	4559,48
523,829	4498,97
524,173	4430,83
524,517	4362,32
524,861	4288,21
525,205	4212,43
525,549	4135,3
525,893	4058,06
526,237	3977,75
526,581	3901,34
526,925	3824,37
527,269	3745,96
527,612	3670,54
527,956	3595,57
528,3	3522,33
528,643	3448,35
528,987	3375,06
529,33	3309,13
529,674	3239,68
530,017	3176,48
530,36	3115,42
530,704	3048,73
531,047	2988,52
531,39	2931,07
531,733	2877,63
532,077	2818,32
532,42	2768,73
532,763	2717,33
533,106	2665,57
533,449	2619,39
533,792	2573,29
534,134	2525,91
534,477	2486,93
534,82	2448,09
535,163	2407,54
535,505	2362,53
535,848	2329,5
536,191	2292,24
536,533	2259,72
536,876	2226,85
537,218	2193,75
537,56	2162,81
537,903	2135,86
538,245	2108,97
538,587	2080,84
538,93	2054,65
539,272	2030,14
539,614	2004,09
539,956	1977,86
540,298	1953,08
540,64	1929,95
540,982	1908,02
541,324	1885,22
541,666	1861,74
542,007	1840,08
542,349	1816,19
542,691	1796,71
543,032	1781,11
543,374	1765,25
543,716	1750,48
544,057	1736,92
544,398	1722,65
544,74	1708,8
545,081	1696,5
545,423	1685,77
545,764	1671,49
546,105	1661,3
546,446	1647,46
546,787	1637,16
547,128	1624,91
547,469	1616,01
547,81	1608,31
548,151	1599,92
548,492	1593,35
548,833	1587,77
549,174	1586,88
549,515	1587,19
549,855	1588,46
550,196	1592,13
550,537	1593,31
550,877	1595,08
551,218	1597,06
551,558	1596,94
551,899	1599,2
552,239	1603,07
552,579	1605,29
552,92	1602,21
553,26	1605,28
553,6	1602,47
553,94	1601,44
554,28	1600,61
554,62	1602,68
554,96	1605,34
555,3	1608,65
555,64	1609,38
555,98	1611,7
556,32	1611,56
556,66	1615,01
556,999	1617,38
557,339	1623,27
557,679	1626,89
558,018	1633,32
558,358	1639,88
558,697	1647,15
559,037	1653,86
559,376	1665,7
559,715	1677,26
560,055	1690,98
560,394	1704,71
560,733	1719,51
561,072	1732,87
561,411	1753,05
561,75	1770,29
562,089	1792,26
562,428	1813,26
562,767	1843,67
563,106	1870,7
563,445	1899,67
563,784	1932,32
564,122	1965,78
564,461	2003,7
564,8	2046,52
565,138	2092,36
565,477	2142,95
565,815	2193,02
566,154	2247,8
566,492	2301,92
566,83	2364,81
567,169	2429,89
567,507	2501,26
567,845	2582,06
568,183	2666,32
568,521	2753,81
568,859	2844,13
569,197	2940,35
569,535	3044,68
569,873	3154,98
570,211	3271,76
570,549	3391,23
570,887	3515
571,224	3647,01
571,562	3783,47
571,9	3923,36
572,237	4068,92
572,575	4222,92
572,912	4381,73
573,25	4539,67
573,587	4702,69
573,924	4868,72
574,262	5039,01
574,599	5215,4
574,936	5394,77
575,273	5574,43
575,61	5757,6
575,947	5942,54
576,284	6126,66
576,621	6305,29
576,958	6485,46
577,295	6664,07
577,632	6845,68
577,969	7023,67
578,305	7194,01
578,642	7356,54
578,979	7516,67
579,315	7666,84
579,652	7811,56
579,988	7944,32
580,325	8075,77
580,661	8193,01
580,997	8296,74
581,334	8384,71
581,67	8463,12
582,006	8527,89
582,342	8580,47
582,678	8611,88
583,014	8635,18
583,35	8646,51
583,686	8645,96
584,022	8624,24
584,358	8588,57
584,694	8547,23
585,029	8491,51
585,365	8428,9
585,701	8348,56
586,036	8260,33
586,372	8172,76
586,707	8068,02
587,043	7952,76
587,378	7833,04
587,714	7709,07
588,049	7587,66
588,384	7457,88
588,719	7320,73
589,054	7179,54
589,39	7046,69
589,725	6905,6
590,06	6756,37
590,395	6612,01
590,729	6471,36
591,064	6323,4
591,399	6179,71
591,734	6036,07
592,069	5892,56
592,403	5756,25
592,738	5614,83
593,073	5475,35
593,407	5339,83
593,742	5208,34
594,076	5081,46
594,41	4954,19
594,745	4831,37
595,079	4712,75
595,413	4598,27
595,747	4485,34
596,081	4375,2
596,416	4269,99
596,75	4167,02
597,084	4069,12
597,418	3975,75
597,751	3880,34
598,085	3790,9
598,419	3706,46
598,753	3623,82
599,086	3541,43
599,42	3460,65
599,754	3384,13
600,087	3313,1
600,421	3245,25
600,754	3177,42
601,088	3111,4
601,421	3051,92
601,754	2989,55
602,088	2930,48
602,421	2872,43
602,754	2819,03
603,087	2769,09
603,42	2717,67
603,753	2666,61
604,086	2618,36
604,419	2572,88
604,752	2528,39
605,085	2486,34
605,417	2448,57
605,75	2407,04
606,083	2370,58
606,415	2335,76
606,748	2303,13
607,08	2270,86
607,413	2238,7
607,745	2210,54
608,078	2182,79
608,41	2153,88
608,742	2124,01
609,074	2097,74
609,407	2078,15
609,739	2055,01
610,071	2027,71
610,403	2004,91
610,735	1982,84
611,067	1962,47
611,399	1942,95
611,73	1922,53
612,062	1906,44
612,394	1890,55
612,726	1874,29
613,057	1858,34
613,389	1840,71
613,72	1829,28
614,052	1815,22
614,383	1805,4
614,715	1793,67
615,046	1778,68
615,377	1770,9
615,708	1759,28
616,04	1751,28
616,371	1743,48
616,702	1732,93
617,033	1731,57
617,364	1728,3
617,695	1723,89
618,026	1718,02
618,356	1716,46
618,687	1719,65
619,018	1719,14
619,349	1721,96
619,679	1722,45
620,01	1723,59
620,34	1730,41
620,671	1729,41
621,001	1730,69
621,332	1733,98
621,662	1738,26
621,992	1742,27
622,322	1743,83
622,653	1748,1
622,983	1751,04
623,313	1757,11
623,643	1760,79
623,973	1762,66
624,303	1770,19
624,633	1773,89
624,962	1777,99
625,292	1782,65
625,622	1785,26
625,952	1787,57
626,281	1790,94
626,611	1795,62
626,94	1796,2
627,27	1798,46
627,599	1800,37
627,929	1800,77
628,258	1801,69
628,587	1803,65
628,916	1806,63
629,246	1809,45
629,575	1810,22
629,904	1807,96
630,233	1804,97
630,562	1806,86
630,891	1802,86
631,22	1804
631,548	1801,8
631,877	1801,7
632,206	1798,73
632,535	1793,8
632,863	1791,24
633,192	1789,18
633,52	1783,38
633,849	1782,66
634,177	1774,44
634,506	1770,92
634,834	1761,46
635,162	1752,74
635,49	1744,07
635,819	1735,71
636,147	1724,63
636,475	1711,98
636,803	1701,13
637,131	1690,5
637,459	1674,17
637,787	1661,55
638,114	1645,42
638,442	1626,8
638,77	1611,94
639,098	1594,72
639,425	1577,73
639,753	1559,35
640,08	1538,67
640,408	1519,07
640,735	1500,84
641,062	1481,54
641,39	1459,01
641,717	1440,62
642,044	1421,27
642,371	1399,91
642,699	1376,9
643,026	1352,06
643,353	1330,76
643,68	1309,69
644,006	1284,02
644,333	1258,31
644,66	1234,99
644,987	1213,39
645,314	1190,14
645,64	1168,96
645,967	1146,51
646,293	1121,92
646,62	1100,34
646,946	1077,14
647,273	1054,38
647,599	1037,35
647,925	1016,28
648,252	995,76
648,578	975,75
648,904	954,81
649,23	936,13
649,556	917,13
