Data from Subt4__51__51.txt Node

Date: Fri Jun 07 14:39:49 CEST 2024
User: Naturwissenschaft
Spectrometer: FLMS00572
Trigger mode: 0
Integration Time (sec): 5,000000E-2
Scans to average: 20
Electric dark correction enabled: true
Nonlinearity correction enabled: false
Boxcar width: 5
XAxis mode: Wavelengths
Number of Pixels in Spectrum: 2048
>>>>>Begin Spectral Data<<<<<
190,164	-4,61
190,544	-0,92
190,925	0,7
191,306	0,88
191,687	1,18
192,067	-0,04
192,448	0,53
192,829	-1,41
193,209	-2,92
193,59	-1,62
193,97	-0,78
194,351	0,12
194,731	-0,5
195,112	-1,93
195,492	-2,45
195,872	-3,35
196,253	-2,44
196,633	-1,15
197,013	2,57
197,393	3,35
197,773	4,69
198,154	6,66
198,534	6,97
198,914	7,03
199,294	6,88
199,674	7,11
200,054	7,43
200,434	9,1
200,814	6,94
201,194	6,42
201,573	6,31
201,953	5,21
202,333	1,28
202,713	1,3
203,092	-0,62
203,472	-0,26
203,852	0,85
204,231	2,84
204,611	2,89
204,99	4,66
205,37	4,4
205,749	5,97
206,129	6,03
206,508	10,36
206,887	10,13
207,267	10,24
207,646	10,48
208,025	10,13
208,405	9,22
208,784	7,43
209,163	9,17
209,542	9,59
209,921	8,35
210,3	10,12
210,679	7,9
211,058	5,67
211,437	8,56
211,816	10,53
212,195	11,09
212,574	11,44
212,952	12,95
213,331	10,85
213,71	10,88
214,089	11,46
214,467	11,13
214,846	11,03
215,225	11,46
215,603	8,86
215,982	7,49
216,36	5,89
216,739	6,18
217,117	4,89
217,495	3,56
217,874	1,05
218,252	1,13
218,63	-0,07
219,009	1,73
219,387	3,01
219,765	3,78
220,143	3,46
220,521	4,71
220,899	2,88
221,277	2,36
221,655	1,99
222,033	3,89
222,411	5,22
222,789	4,92
223,167	4,06
223,545	2,32
223,923	2,36
224,301	1,16
224,678	0,65
225,056	0,76
225,434	0,29
225,811	2,86
226,189	0,47
226,566	-1,45
226,944	0,17
227,321	0,31
227,699	1,97
228,076	2,64
228,454	4,16
228,831	4,61
229,208	4,83
229,586	3,6
229,963	2,88
230,34	5,1
230,717	6,48
231,094	3,24
231,471	2,31
231,848	1,78
232,225	1,92
232,602	2,84
232,979	2,31
233,356	2,09
233,733	5,81
234,11	6
234,487	6,53
234,864	5,9
235,24	7,59
235,617	7,58
235,994	7,08
236,37	5,98
236,747	6,63
237,124	8,15
237,5	7,36
237,877	5,04
238,253	5
238,63	3,75
239,006	5,62
239,382	7,45
239,759	7,56
240,135	8,69
240,511	9,29
240,887	6,44
241,264	5,21
241,64	5,37
242,016	6,82
242,392	5,66
242,768	6,92
243,144	4,83
243,52	2,89
243,896	3,48
244,272	3,76
244,648	4,85
245,023	7,02
245,399	8,59
245,775	10,45
246,151	10,46
246,526	10,72
246,902	7,43
247,278	4,59
247,653	5,91
248,029	6,92
248,404	7,89
248,78	6,81
249,155	4
249,53	1,9
249,906	1,03
250,281	2,32
250,656	4,07
251,032	7,44
251,407	9,36
251,782	9,7
252,157	7,88
252,532	6,59
252,907	7,08
253,282	8,99
253,657	10,33
254,032	10,62
254,407	8,98
254,782	7,27
255,157	6,05
255,532	6,49
255,907	6,42
256,281	7,97
256,656	7,03
257,031	8
257,405	8,94
257,78	8
258,155	8,21
258,529	7,89
258,904	7,69
259,278	8,64
259,652	11,74
260,027	12,47
260,401	11,78
260,775	13,76
261,15	12,59
261,524	10,87
261,898	10,6
262,272	11,04
262,646	12,26
263,021	13,32
263,395	15,5
263,769	12,6
264,143	13,16
264,517	12,71
264,89	11,53
265,264	7,84
265,638	10,55
266,012	9,2
266,386	7,67
266,76	5,28
267,133	4,68
267,507	1,47
267,88	2,02
268,254	-0,45
268,628	-2,75
269,001	-3,61
269,375	-1,07
269,748	-2,88
270,121	-1,65
270,495	-1,08
270,868	2,29
271,241	1,43
271,615	2,16
271,988	1,97
272,361	0,44
272,734	3,54
273,107	4,89
273,48	5,36
273,853	4,61
274,226	4,73
274,599	4,92
274,972	3,94
275,345	5,19
275,718	4,99
276,091	5,08
276,464	9,28
276,836	7,13
277,209	7,46
277,582	5,96
277,954	7,61
278,327	6,03
278,7	6,08
279,072	4,87
279,445	4,77
279,817	3,27
280,189	3,17
280,562	1,06
280,934	1,67
281,306	0,64
281,679	3,68
282,051	3,23
282,423	4,85
282,795	6,42
283,167	9,04
283,539	10,03
283,911	10,64
284,283	8,97
284,655	10,18
285,027	11,45
285,399	12,89
285,771	10,89
286,143	10,08
286,515	10,14
286,886	8,31
287,258	4,87
287,63	6,52
288,001	6,9
288,373	9,6
288,745	7,06
289,116	5,9
289,488	4,42
289,859	4,74
290,23	4,39
290,602	4,9
290,973	4,7
291,344	8,25
291,716	5,84
292,087	6,24
292,458	5,63
292,829	5,91
293,2	7,66
293,571	7,91
293,942	8,69
294,313	9,44
294,684	8,57
295,055	9,58
295,426	8,44
295,797	9,38
296,168	10,11
296,539	10,47
296,909	14,73
297,28	14,5
297,651	14,35
298,021	13,11
298,392	12,17
298,763	11,66
299,133	10
299,503	7,9
299,874	3,92
300,244	3,13
300,615	1,21
300,985	-4,09
301,355	-4,57
301,726	-2,42
302,096	-1,19
302,466	0,73
302,836	2,1
303,206	3,2
303,576	3,89
303,946	6,19
304,316	5,54
304,686	7,46
305,056	9,12
305,426	8,12
305,796	8,67
306,166	6,19
306,535	4,36
306,905	2,54
307,275	1,24
307,644	1,16
308,014	3,05
308,383	2,96
308,753	1,74
309,122	2,89
309,492	3,09
309,861	2,26
310,231	4,58
310,6	6,4
310,969	8,73
311,339	9,89
311,708	9,48
312,077	7,25
312,446	8,61
312,815	8,7
313,184	7,55
313,553	8,36
313,922	8,16
314,291	7,92
314,66	8,95
315,029	7,86
315,398	7,12
315,767	7,99
316,136	8,5
316,504	8,3
316,873	11,49
317,242	10,59
317,61	11,21
317,979	11,02
318,347	9,9
318,716	6,53
319,084	7,7
319,453	8,2
319,821	8,62
320,189	8,85
320,558	8,89
320,926	5,54
321,294	7,23
321,662	6,18
322,031	5,57
322,399	7,55
322,767	8,97
323,135	8,21
323,503	9,52
323,871	8,37
324,239	9,47
324,607	9,39
324,974	10,16
325,342	10,41
325,71	11,39
326,078	13,02
326,445	13,6
326,813	13,37
327,181	13,91
327,548	14,28
327,916	16,19
328,283	14,28
328,651	13,78
329,018	13,25
329,385	12,46
329,753	11,96
330,12	9,94
330,487	8,35
330,855	9,7
331,222	7,73
331,589	6,45
331,956	4,72
332,323	4,7
332,69	6,02
333,057	7,9
333,424	7,44
333,791	7,18
334,158	7,29
334,525	5,57
334,892	3,24
335,258	2,17
335,625	5,9
335,992	4,91
336,358	5,31
336,725	3,06
337,091	1,59
337,458	1,71
337,824	1,09
338,191	0,42
338,557	2,1
338,924	3,21
339,29	5,58
339,656	1,63
340,023	1,25
340,389	1,75
340,755	4,25
341,121	4,26
341,487	4,04
341,853	6,12
342,219	8
342,585	7,54
342,951	8,18
343,317	7,7
343,683	8,21
344,049	9,83
344,415	10,26
344,78	8,25
345,146	10,01
345,512	10,77
345,877	10,19
346,243	7,55
346,608	9,79
346,974	9,93
347,339	13,2
347,705	14,5
348,07	13,59
348,436	13,96
348,801	14,73
349,166	12,46
349,531	12,7
349,897	12,82
350,262	15,19
350,627	13,67
350,992	13,84
351,357	12,88
351,722	9,19
352,087	11,65
352,452	9,95
352,817	8,76
353,181	9,75
353,546	7,33
353,911	4,63
354,276	4,2
354,64	4,38
355,005	3,42
355,37	0,77
355,734	2,17
356,099	1,63
356,463	1,58
356,828	2,7
357,192	2,77
357,556	4,52
357,921	7,69
358,285	6,77
358,649	5,38
359,013	8,14
359,378	10,22
359,742	10,94
360,106	11,17
360,47	12,43
360,834	12,39
361,198	12,56
361,562	11,5
361,926	10,79
362,289	12,1
362,653	14,42
363,017	10,88
363,381	9,04
363,744	9,64
364,108	11,01
364,472	9,7
364,835	10,15
365,199	12,21
365,562	14,2
365,926	12,11
366,289	10,56
366,652	9,09
367,016	10,91
367,379	11,32
367,742	10,68
368,105	9,91
368,469	12,37
368,832	14,44
369,195	12,71
369,558	11,4
369,921	12,46
370,284	15,55
370,647	16,34
371,01	14,92
371,372	14,01
371,735	13,58
372,098	11,25
372,461	7,57
372,823	5,41
373,186	4,4
373,549	3,55
373,911	3,13
374,274	1,39
374,636	-0,52
374,999	-1,56
375,361	0,41
375,723	2,18
376,086	4,14
376,448	6,26
376,81	5,26
377,172	5,05
377,535	8,21
377,897	6,55
378,259	7,18
378,621	8,21
378,983	9,19
379,345	8,88
379,707	6,91
380,068	7,26
380,43	6,91
380,792	7,56
381,154	7,49
381,516	6,13
381,877	9,14
382,239	9,17
382,6	9,48
382,962	10,65
383,323	11,02
383,685	12,59
384,046	9,91
384,408	9,86
384,769	9,06
385,13	9,57
385,492	9,01
385,853	8,18
386,214	7,43
386,575	7,72
386,936	4,89
387,297	3,31
387,658	3,82
388,019	7,54
388,38	8,97
388,741	10,07
389,102	11,88
389,463	13,46
389,823	14,68
390,184	14,92
390,545	14,35
390,906	15,02
391,266	16,68
391,627	15,56
391,987	15,52
392,348	16,01
392,708	15,2
393,069	13,43
393,429	9,79
393,789	8,74
394,15	9,14
394,51	10,87
394,87	12,82
395,23	11,97
395,59	9,69
395,95	5,3
396,31	3,54
396,67	5,02
397,03	7,08
397,39	10,85
397,75	11,01
398,11	8,48
398,47	4,16
398,829	4,7
399,189	4,37
399,549	9,48
399,908	12,78
400,268	13,96
400,627	10,81
400,987	7,24
401,346	5,36
401,706	9,29
402,065	14,09
402,424	27,1
402,784	61,06
403,143	150,57
403,502	336,34
403,861	578,27
404,221	762,88
404,58	882,37
404,939	953,24
405,298	987,77
405,657	997,62
406,015	997,6
406,374	990,35
406,733	957,69
407,092	870,26
407,451	682,78
407,809	440,12
408,168	254,58
408,527	137,9
408,885	67,76
409,244	33,99
409,602	19,46
409,961	16,71
410,319	13,97
410,678	11,61
411,036	9,75
411,394	10,01
411,752	9,82
412,111	11,97
412,469	10,97
412,827	12,25
413,185	13,24
413,543	15,56
413,901	17,05
414,259	17,9
414,617	20,44
414,975	20,48
415,333	20,21
415,69	18,09
416,048	16,95
416,406	18,5
416,763	19,29
417,121	18,6
417,479	17,71
417,836	15,66
418,194	15,37
418,551	12,89
418,909	12,65
419,266	13,85
419,623	17,37
419,981	17,75
420,338	19,58
420,695	20,28
421,052	22,78
421,409	22,31
421,766	24,22
422,123	23,54
422,48	25,43
422,837	26,36
423,194	24,87
423,551	22,89
423,908	21,96
424,265	20,53
424,621	17,08
424,978	15,25
425,335	16,77
425,691	16,65
426,048	18,97
426,404	20,16
426,761	20,54
427,117	20,23
427,474	22,24
427,83	22,29
428,186	22
428,543	25,38
428,899	26,26
429,255	26
429,611	27,7
429,967	28,08
430,323	27
430,679	28
431,035	29,68
431,391	28,88
431,747	30,57
432,103	31,28
432,459	32,07
432,815	31,58
433,17	34,81
433,526	33,53
433,882	32,51
434,237	33,37
434,593	33,42
434,948	34,39
435,304	37,1
435,659	37,89
436,014	37,75
436,37	39,37
436,725	38,92
437,08	34,28
437,436	34,99
437,791	34,12
438,146	32,99
438,501	32,69
438,856	30,68
439,211	31,19
439,566	30,24
439,921	30,37
440,276	29,95
440,63	30,73
440,985	33,65
441,34	33,03
441,695	34,87
442,049	36,61
442,404	36,96
442,758	38,35
443,113	37,07
443,467	38,63
443,822	40,02
444,176	36,86
444,531	37,6
444,885	37,59
445,239	39,4
445,593	36,68
445,948	35,69
446,302	36,01
446,656	39,19
447,01	39,33
447,364	39,5
447,718	37,97
448,072	40,25
448,426	43,89
448,779	45,82
449,133	45,84
449,487	49,65
449,841	51,02
450,194	50,57
450,548	48,62
450,902	49,03
451,255	48,91
451,609	52,62
451,962	54,18
452,315	51,2
452,669	48,7
453,022	49,41
453,375	48,07
453,729	47,73
454,082	50,74
454,435	52
454,788	50,49
455,141	50,8
455,494	50,07
455,847	50,14
456,2	51,3
456,553	52,42
456,906	51,45
457,258	55,03
457,611	54,27
457,964	53,52
458,316	54,27
458,669	58,61
459,022	59,39
459,374	57,55
459,727	58,07
460,079	57,33
460,432	58
460,784	59,35
461,136	58,17
461,488	59,42
461,841	57,98
462,193	59,91
462,545	58,45
462,897	59,5
463,249	63,19
463,601	64,35
463,953	65,09
464,305	67,42
464,657	68,05
465,009	68,25
465,361	70,04
465,712	72,51
466,064	70,69
466,416	70,05
466,767	70,83
467,119	69,67
467,47	70,49
467,822	72,08
468,173	71,66
468,525	72,18
468,876	74,03
469,227	75,32
469,579	76,74
469,93	77,32
470,281	78,29
470,632	78,09
470,983	76,76
471,334	76,45
471,685	74,99
472,036	74,67
472,387	74,59
472,738	73,83
473,089	71,61
473,44	70,59
473,79	70,22
474,141	70,8
474,492	71,38
474,842	74,03
475,193	74,89
475,543	77,64
475,894	77,76
476,244	80,88
476,595	80,31
476,945	83,43
477,295	84,16
477,645	83,87
477,996	88,01
478,346	86,01
478,696	85,52
479,046	84,61
479,396	84,88
479,746	88,34
480,096	86,1
480,446	87,52
480,796	88,27
481,145	91,08
481,495	91,76
481,845	90,27
482,195	91,64
482,544	92,93
482,894	94,32
483,243	95,2
483,593	91,75
483,942	91,32
484,292	92,83
484,641	91,33
484,99	90,19
485,34	93,3
485,689	92,38
486,038	94,71
486,387	96,59
486,736	96,69
487,085	97,3
487,434	101,28
487,783	102,95
488,132	105,03
488,481	107,06
488,83	108,64
489,179	108,06
489,527	110,21
489,876	111,49
490,225	113,81
490,573	115,28
490,922	116,34
491,27	119,52
491,619	123,72
491,967	126,09
492,316	128,36
492,664	131,29
493,012	134,15
493,361	133,57
493,709	135,45
494,057	136,72
494,405	139,25
494,753	142,16
495,101	140,24
495,449	140,72
495,797	142,53
496,145	144,46
496,493	147,97
496,84	150,73
497,188	157,87
497,536	163,18
497,884	167,77
498,231	172,66
498,579	180,52
498,926	189,16
499,274	196,62
499,621	202,5
499,969	211,84
500,316	220,61
500,663	228,71
501,01	238,21
501,358	246,9
501,705	257,27
502,052	270,06
502,399	280,23
502,746	292,98
503,093	305,63
503,44	322,36
503,787	335,89
504,134	352,36
504,481	371,13
504,827	389,87
505,174	411,63
505,521	432,35
505,867	456,24
506,214	481,8
506,56	509,04
506,907	538,35
507,253	568,87
507,6	604,62
507,946	636,72
508,292	673,51
508,639	712,46
508,985	752,49
509,331	796,54
509,677	841,44
510,023	886,52
510,369	933,77
510,715	983
511,061	1032,52
511,407	1083,49
511,753	1136,02
512,099	1190,17
512,444	1246,03
512,79	1301,88
513,136	1357,73
513,481	1409,73
513,827	1466,15
514,172	1521,5
514,518	1576,99
514,863	1633,15
515,209	1684,79
515,554	1740,87
515,899	1790,65
516,245	1837,54
516,59	1882,27
516,935	1925,66
517,28	1968,69
517,625	2005,39
517,97	2040,11
518,315	2068,11
518,66	2092,25
519,005	2116,3
519,35	2130,76
519,695	2144,62
520,039	2156,41
520,384	2160,71
520,729	2160,05
521,073	2158,44
521,418	2152,07
521,762	2140,32
522,107	2128,61
522,451	2108,7
522,796	2085,69
523,14	2061,18
523,484	2037,26
523,829	2008,16
524,173	1981,45
524,517	1952,27
524,861	1920,74
525,205	1887,47
525,549	1852,37
525,893	1818,47
526,237	1787,11
526,581	1752,09
526,925	1717,59
527,269	1682,93
527,612	1647,09
527,956	1612,68
528,3	1580,24
528,643	1544,22
528,987	1512,06
529,33	1484,16
529,674	1453,49
530,017	1424,22
530,36	1401,35
530,704	1374,62
531,047	1347,02
531,39	1324,22
531,733	1301,76
532,077	1276,16
532,42	1254,72
532,763	1231,37
533,106	1206,61
533,449	1185,55
533,792	1164,46
534,134	1140,67
534,477	1124,31
534,82	1108,17
535,163	1089,33
535,505	1069,89
535,848	1055,43
536,191	1038,32
536,533	1024,88
536,876	1012,8
537,218	999,95
537,56	989,53
537,903	976,91
538,245	963,94
538,587	951,72
538,93	939,92
539,272	929,34
539,614	918,78
539,956	913,4
540,298	902,44
540,64	890,99
540,982	881,6
541,324	870,32
541,666	863,56
542,007	855,17
542,349	849,09
542,691	842,56
543,032	837,34
543,374	831,41
543,716	822,09
544,057	818,58
544,398	816,91
544,74	811,88
545,081	808,33
545,423	803,55
545,764	800,12
546,105	794,64
546,446	791,02
546,787	787,68
547,128	785,12
547,469	785,49
547,81	784,01
548,151	782,83
548,492	780,35
548,833	781,42
549,174	783,79
549,515	785,07
549,855	788,15
550,196	791,91
550,537	795,89
550,877	798,82
551,218	802,72
551,558	807,21
551,899	810,21
552,239	818,07
552,579	824,69
552,92	830,5
553,26	836,84
553,6	840,69
553,94	846,84
554,28	852,2
554,62	860,42
554,96	867,08
555,3	874,68
555,64	883,98
555,98	894,03
556,32	900,16
556,66	909,8
556,999	923,45
557,339	936,55
557,679	949,95
558,018	966,92
558,358	981,58
558,697	998,99
559,037	1017,71
559,376	1037,02
559,715	1058,75
560,055	1085,64
560,394	1109,23
560,733	1135,02
561,072	1165,04
561,411	1196,08
561,75	1223,41
562,089	1256,4
562,428	1292,99
562,767	1332,92
563,106	1377,34
563,445	1419,41
563,784	1464,38
564,122	1516,02
564,461	1568,74
564,8	1626,36
565,138	1686,05
565,477	1753,95
565,815	1826,39
566,154	1897,97
566,492	1978,23
566,83	2060,37
567,169	2149,63
567,507	2246,27
567,845	2347,36
568,183	2453,09
568,521	2567,17
568,859	2684,57
569,197	2811,31
569,535	2946,29
569,873	3089,26
570,211	3233,66
570,549	3386,73
570,887	3549,28
571,224	3714,52
571,562	3889,49
571,9	4073,02
572,237	4258,3
572,575	4458,51
572,912	4660,84
573,25	4869,18
573,587	5079,07
573,924	5302,18
574,262	5531,15
574,599	5759,16
574,936	5996,04
575,273	6232,47
575,61	6476,82
575,947	6720,6
576,284	6967,13
576,621	7211,06
576,958	7452,47
577,295	7701,49
577,632	7943,12
577,969	8173,85
578,305	8410,66
578,642	8629,05
578,979	8854,04
579,315	9061,65
579,652	9262,73
579,988	9448,53
580,325	9629
580,661	9794,06
580,997	9942,16
581,334	10074,94
581,67	10200,98
582,006	10297,03
582,342	10388,48
582,678	10445,59
583,014	10493,61
583,35	10530,85
583,686	10551,06
584,022	10546,13
584,358	10523,83
584,694	10494,97
585,029	10442,38
585,365	10376,25
585,701	10300,25
586,036	10205,87
586,372	10109,78
586,707	10000,63
587,043	9870,37
587,378	9728,21
587,714	9590,2
588,049	9441,64
588,384	9275,28
588,719	9111,91
589,054	8936,22
589,39	8759,48
589,725	8587,24
590,06	8404,15
590,395	8212,15
590,729	8027,13
591,064	7844,9
591,399	7655,61
591,734	7471,92
592,069	7289,72
592,403	7109,37
592,738	6933,29
593,073	6761,04
593,407	6586,37
593,742	6420,92
594,076	6261,8
594,41	6105,5
594,745	5947,63
595,079	5793,31
595,413	5643,68
595,747	5501,27
596,081	5363,95
596,416	5230,67
596,75	5100,82
597,084	4978,52
597,418	4855,99
597,751	4735,94
598,085	4619,65
598,419	4511,86
598,753	4405,23
599,086	4305,98
599,42	4206,96
599,754	4113,67
600,087	4024
600,421	3935,95
600,754	3847,57
601,088	3763,15
601,421	3691,56
601,754	3616,04
602,088	3544,23
602,421	3475,78
602,754	3410,74
603,087	3349,24
603,42	3282,58
603,753	3219,2
604,086	3162,45
604,419	3105,53
604,752	3053,39
605,085	2997,73
605,417	2948,2
605,75	2899,37
606,083	2853,83
606,415	2809,3
606,748	2766,22
607,08	2727,28
607,413	2689,78
607,745	2651,56
608,078	2618,59
608,41	2581,49
608,742	2545,46
609,074	2512,58
609,407	2483,77
609,739	2457,61
610,071	2425,7
610,403	2398,32
610,735	2370,87
611,067	2347,11
611,399	2324,13
611,73	2299,76
612,062	2282,26
612,394	2263,83
612,726	2244,28
613,057	2228,65
613,389	2205,83
613,72	2190,9
614,052	2171,93
614,383	2159,46
614,715	2144,57
615,046	2130,35
615,377	2118,77
615,708	2106,4
616,04	2098,52
616,371	2091,01
616,702	2080,09
617,033	2078,11
617,364	2073,34
617,695	2072,46
618,026	2068,61
618,356	2068,98
618,687	2071,3
619,018	2071,98
619,349	2076,33
619,679	2077,9
620,01	2081,22
620,34	2085,44
620,671	2088,94
621,001	2092,42
621,332	2097,37
621,662	2103,38
621,992	2107,68
622,322	2112,8
622,653	2118,77
622,983	2121,19
623,313	2127,58
623,643	2135,69
623,973	2143,58
624,303	2151,25
624,633	2158,76
624,962	2163,22
625,292	2168,89
625,622	2174,77
625,952	2179,37
626,281	2187
626,611	2195,46
626,94	2201,76
627,27	2205,66
627,599	2208,72
627,929	2213,92
628,258	2217,54
628,587	2223,98
628,916	2230,31
629,246	2235,53
629,575	2239,73
629,904	2241,11
630,233	2242,01
630,562	2242,89
630,891	2242,18
631,22	2241,79
631,548	2238,11
631,877	2238,97
632,206	2236,93
632,535	2234,98
632,863	2233,17
633,192	2228,72
633,52	2222,47
633,849	2221,69
634,177	2214,03
634,506	2208,52
634,834	2201,67
635,162	2195,9
635,49	2186,06
635,819	2172,9
636,147	2160,02
636,475	2144,85
636,803	2130,86
637,131	2117,1
637,459	2095,58
637,787	2077,99
638,114	2060,88
638,442	2040,12
638,77	2019,24
639,098	1999,93
639,425	1981,64
639,753	1958,22
640,08	1934,61
640,408	1911,42
640,735	1888,17
641,062	1863,2
641,39	1837,77
641,717	1812,26
642,044	1784,62
642,371	1759,74
642,699	1728,51
643,026	1698,1
643,353	1671,27
643,68	1643,17
644,006	1613,65
644,333	1581,71
644,66	1552,87
644,987	1524,14
645,314	1494,22
645,64	1464,74
645,967	1433,46
646,293	1405,67
646,62	1378,06
646,946	1345,84
647,273	1316,23
647,599	1290,65
647,925	1267,2
648,252	1241,83
648,578	1216,01
648,904	1188,72
649,23	1164,35
649,556	1139,28
649,882	1116,07
650,208	1095,43
650,534	1074,55
