Data from Subt4__30__30.txt Node

Date: Fri Jun 07 14:39:28 CEST 2024
User: Naturwissenschaft
Spectrometer: FLMS00572
Trigger mode: 0
Integration Time (sec): 5,000000E-2
Scans to average: 20
Electric dark correction enabled: true
Nonlinearity correction enabled: false
Boxcar width: 5
XAxis mode: Wavelengths
Number of Pixels in Spectrum: 2048
>>>>>Begin Spectral Data<<<<<
190,164	-10,56
190,544	-8,56
190,925	-6,96
191,306	-5,81
191,687	-4,47
192,067	-5,35
192,448	-4,13
192,829	-3,69
193,209	-1,73
193,59	-1,48
193,97	-2,64
194,351	-0,46
194,731	0,02
195,112	-0,33
195,492	-1,42
195,872	-0,63
196,253	1,74
196,633	1,99
197,013	5,58
197,393	4,08
197,773	4,86
198,154	5,63
198,534	4,56
198,914	4,19
199,294	4,23
199,674	4,77
200,054	3,93
200,434	2,87
200,814	5,08
201,194	1,9
201,573	2,37
201,953	1,79
202,333	0,72
202,713	-0,18
203,092	-0,44
203,472	-1,52
203,852	1,25
204,231	0,81
204,611	1,96
204,99	0,04
205,37	-0,38
205,749	0,89
206,129	2,3
206,508	5,36
206,887	7,66
207,267	6,48
207,646	9,57
208,025	7,01
208,405	7,54
208,784	6,81
209,163	8,1
209,542	10,51
209,921	8,66
210,3	8,79
210,679	7,08
211,058	6,55
211,437	9,16
211,816	9,84
212,195	9,25
212,574	9,22
212,952	9,62
213,331	8,41
213,71	7,97
214,089	8,6
214,467	7,56
214,846	7,77
215,225	7,15
215,603	6,88
215,982	3,91
216,36	4,3
216,739	4,93
217,117	5,32
217,495	5,18
217,874	4,03
218,252	3,5
218,63	2,74
219,009	3,79
219,387	3,3
219,765	3,38
220,143	3,76
220,521	6,13
220,899	5,2
221,277	3,73
221,655	3,32
222,033	5,33
222,411	7,31
222,789	6,81
223,167	6,74
223,545	7,59
223,923	8,81
224,301	9,56
224,678	8,78
225,056	6,5
225,434	6,91
225,811	8,04
226,189	5,58
226,566	3,41
226,944	6,08
227,321	4,2
227,699	4,26
228,076	2,06
228,454	1,32
228,831	0,62
229,208	1,3
229,586	-0,24
229,963	-0,84
230,34	1,7
230,717	4,13
231,094	1,52
231,471	2,02
231,848	0,7
232,225	-0,98
232,602	-0,41
232,979	-0,86
233,356	-0,14
233,733	1,57
234,11	2,66
234,487	1,46
234,864	1,69
235,24	3,02
235,617	2,29
235,994	1,63
236,37	4,16
236,747	3,77
237,124	3,65
237,5	3
237,877	0,59
238,253	-0,27
238,63	0,48
239,006	1,33
239,382	2,04
239,759	5,03
240,135	4,61
240,511	4,2
240,887	3,46
241,264	4,1
241,64	5,48
242,016	7,99
242,392	8,49
242,768	7,56
243,144	6,08
243,52	4,97
243,896	2,42
244,272	5,7
244,648	4,09
245,023	5,06
245,399	5,05
245,775	4,97
246,151	4,66
246,526	3,99
246,902	2,76
247,278	0,35
247,653	0,72
248,029	1,33
248,404	-0,03
248,78	0,95
249,155	1,02
249,53	-0,06
249,906	0,14
250,281	1,34
250,656	3,91
251,032	4,96
251,407	6,83
251,782	7,94
252,157	8,52
252,532	8,47
252,907	9,76
253,282	8,29
253,657	9,39
254,032	10,11
254,407	9,18
254,782	7,55
255,157	7,79
255,532	7,65
255,907	7,77
256,281	8,02
256,656	9,12
257,031	8,56
257,405	9,03
257,78	8,73
258,155	8,35
258,529	7,78
258,904	7,29
259,278	6,66
259,652	7,27
260,027	7,06
260,401	6,72
260,775	6,32
261,15	6,97
261,524	8,84
261,898	6,27
262,272	5,72
262,646	5,18
263,021	5,6
263,395	7,93
263,769	6,42
264,143	8,66
264,517	8,35
264,89	7,83
265,264	4,01
265,638	3,69
266,012	7,5
266,386	7,43
266,76	6,26
267,133	4,21
267,507	1,01
267,88	0,63
268,254	-3,32
268,628	-4,56
269,001	-4,45
269,375	-0,79
269,748	-0,28
270,121	-1,01
270,495	-0,14
270,868	2,92
271,241	3,35
271,615	4,53
271,988	5,54
272,361	5,6
272,734	5,52
273,107	5,92
273,48	4,63
273,853	3,89
274,226	4,55
274,599	4,68
274,972	2,89
275,345	5,52
275,718	5,35
276,091	5,59
276,464	6,74
276,836	7,87
277,209	6,35
277,582	6,46
277,954	5,9
278,327	4,15
278,7	3,39
279,072	5,59
279,445	3,88
279,817	3,46
280,189	3,65
280,562	3,32
280,934	3,18
281,306	5,3
281,679	6,4
282,051	6,69
282,423	7,04
282,795	6,57
283,167	6,86
283,539	6,07
283,911	5,04
284,283	4,8
284,655	6,51
285,027	7,25
285,399	5,44
285,771	6,15
286,143	6,83
286,515	5
286,886	5,08
287,258	3,25
287,63	5,27
288,001	6,1
288,373	8,92
288,745	7,43
289,116	7,32
289,488	5,72
289,859	3,36
290,23	0,71
290,602	3,05
290,973	2,29
291,344	4,58
291,716	3,12
292,087	3,06
292,458	1,37
292,829	-0,61
293,2	-0,49
293,571	0,78
293,942	1,08
294,313	3,16
294,684	4,15
295,055	4,05
295,426	2,27
295,797	2,76
296,168	3,45
296,539	2,85
296,909	7,38
297,28	7,12
297,651	8,06
298,021	7,94
298,392	9,79
298,763	7,84
299,133	9,02
299,503	7,5
299,874	5,68
300,244	4,71
300,615	4,96
300,985	2,41
301,355	2,61
301,726	2,83
302,096	2,16
302,466	-0,16
302,836	-1,08
303,206	-0,5
303,576	1,08
303,946	2,76
304,316	3,66
304,686	2,71
305,056	2,74
305,426	3,24
305,796	4,77
306,166	4,25
306,535	4,73
306,905	7,4
307,275	5,92
307,644	3,98
308,014	4,71
308,383	3,88
308,753	2,76
309,122	1,75
309,492	1,22
309,861	0,52
310,231	1,58
310,6	1,34
310,969	-0,06
311,339	1,38
311,708	1,46
312,077	0,62
312,446	1,8
312,815	2,19
313,184	0,73
313,553	-0,13
313,922	0,59
314,291	2,11
314,66	3,44
315,029	2,57
315,398	2,33
315,767	5,26
316,136	3,47
316,504	4,25
316,873	6,32
317,242	8,28
317,61	7,28
317,979	5,86
318,347	3,11
318,716	0,97
319,084	3,15
319,453	3,09
319,821	1,36
320,189	5,04
320,558	4,53
320,926	1,9
321,294	1,31
321,662	2
322,031	3,26
322,399	4,89
322,767	6,57
323,135	5,51
323,503	5,74
323,871	6,22
324,239	3,73
324,607	3,67
324,974	7,29
325,342	9,47
325,71	8,92
326,078	8,67
326,445	10,19
326,813	10,95
327,181	9,58
327,548	7,36
327,916	8,26
328,283	8,27
328,651	8,59
329,018	3,72
329,385	1,42
329,753	3,37
330,12	-0,54
330,487	-1,17
330,855	-3,06
331,222	-3,04
331,589	-2,76
331,956	-4,43
332,323	-5,21
332,69	-4,25
333,057	1,21
333,424	0,6
333,791	2,34
334,158	3,48
334,525	2,62
334,892	3,23
335,258	3,37
335,625	5,3
335,992	4,93
336,358	5,8
336,725	3,35
337,091	-0,03
337,458	1,94
337,824	-1,68
338,191	-1,61
338,557	-2,74
338,924	-3,87
339,29	-2,96
339,656	-3,61
340,023	-2,73
340,389	-2,63
340,755	-2,12
341,121	-0,82
341,487	-1,66
341,853	-0,17
342,219	1,02
342,585	1,76
342,951	2,34
343,317	3,54
343,683	4,03
344,049	2,54
344,415	3,73
344,78	2,38
345,146	4,54
345,512	3,98
345,877	3,91
346,243	3,44
346,608	5,48
346,974	6,45
347,339	6,57
347,705	5,42
348,07	5,47
348,436	7,51
348,801	10,12
349,166	6,35
349,531	9,21
349,897	10,1
350,262	11,69
350,627	10,27
350,992	10,33
351,357	8,02
351,722	8,46
352,087	9,98
352,452	6,14
352,817	4,55
353,181	5,95
353,546	3,38
353,911	0,94
354,276	0,62
354,64	0,09
355,005	-0,81
355,37	-1,76
355,734	-2,48
356,099	-2,06
356,463	0,28
356,828	0,2
357,192	-0,9
357,556	0,09
357,921	0,56
358,285	0,14
358,649	1,29
359,013	3,57
359,378	5,49
359,742	6,76
360,106	6,67
360,47	5,04
360,834	7,11
361,198	8,03
361,562	8,04
361,926	9,37
362,289	10,59
362,653	10,99
363,017	8,82
363,381	9,25
363,744	9,66
364,108	10,89
364,472	11,76
364,835	12,02
365,199	13,32
365,562	12,88
365,926	11,17
366,289	11,79
366,652	12,05
367,016	13,63
367,379	13,72
367,742	13,82
368,105	13,39
368,469	12,2
368,832	12,19
369,195	12,02
369,558	10,29
369,921	11,67
370,284	10,71
370,647	8,63
371,01	7,93
371,372	6,22
371,735	5,56
372,098	2,79
372,461	1,43
372,823	0,84
373,186	0,29
373,549	1,24
373,911	1,16
374,274	0,08
374,636	0,08
374,999	-1,86
375,361	-1,06
375,723	-0,99
376,086	0,25
376,448	1,73
376,81	0,98
377,172	-0,5
377,535	0,92
377,897	-0,95
378,259	-0,87
378,621	1,24
378,983	1,32
379,345	3,61
379,707	2,71
380,068	4,18
380,43	5,06
380,792	5,47
381,154	6,36
381,516	5,8
381,877	7,12
382,239	7,83
382,6	7,74
382,962	9,74
383,323	7,53
383,685	7,74
384,046	5,22
384,408	6,22
384,769	5,35
385,13	4,66
385,492	4,61
385,853	4,47
386,214	5,2
386,575	2,95
386,936	0,73
387,297	1
387,658	2,95
388,019	5,25
388,38	5,05
388,741	5,32
389,102	7,31
389,463	8,05
389,823	9,94
390,184	9,04
390,545	12,05
390,906	12,2
391,266	14,6
391,627	13,2
391,987	14,91
392,348	14,12
392,708	15,79
393,069	16,28
393,429	14,83
393,789	13,08
394,15	12,57
394,51	12,1
394,87	13,21
395,23	11,93
395,59	10,77
395,95	7,85
396,31	7,1
396,67	7,59
397,03	7,23
397,39	8,26
397,75	10,99
398,11	11,4
398,47	9,86
398,829	10,28
399,189	8,68
399,549	12,41
399,908	14,57
400,268	16
400,627	12,95
400,987	9,65
401,346	9,33
401,706	10,91
402,065	15,23
402,424	27,52
402,784	61,99
403,143	151,8
403,502	332,8
403,861	558,4
404,221	725,04
404,58	830,24
404,939	890,51
405,298	919,43
405,657	927,83
406,015	928,11
406,374	918,79
406,733	886,04
407,092	797,87
407,451	615,82
407,809	388,73
408,168	220,29
408,527	116,88
408,885	58,44
409,244	31,77
409,602	21,46
409,961	16,67
410,319	13,54
410,678	12,03
411,036	11,06
411,394	11,72
411,752	10,86
412,111	12,74
412,469	12,88
412,827	15,08
413,185	13,3
413,543	11,74
413,901	13,27
414,259	15,65
414,617	18,98
414,975	22,61
415,333	20,48
415,69	20,64
416,048	20,67
416,406	20,9
416,763	19,41
417,121	18,99
417,479	20
417,836	19,47
418,194	19,49
418,551	14,62
418,909	11,7
419,266	13,7
419,623	17,17
419,981	15,74
420,338	14,84
420,695	15,83
421,052	17,67
421,409	18,93
421,766	19,34
422,123	15,37
422,48	18,19
422,837	20,03
423,194	19,8
423,551	16,75
423,908	16,53
424,265	19,34
424,621	19,24
424,978	20,99
425,335	20,09
425,691	20,82
426,048	23,96
426,404	25,15
426,761	25,18
427,117	25,68
427,474	28,26
427,83	29,18
428,186	26,93
428,543	28,27
428,899	26,63
429,255	26,95
429,611	26,97
429,967	28,01
430,323	27
430,679	26,12
431,035	27,29
431,391	27,23
431,747	28,94
432,103	32,55
432,459	31,55
432,815	32,38
433,17	34,56
433,526	34,87
433,882	35,59
434,237	37,57
434,593	40,68
434,948	39,7
435,304	41,22
435,659	42
436,014	39,62
436,37	41,15
436,725	41,17
437,08	40,05
437,436	40,47
437,791	37,24
438,146	33,69
438,501	31,5
438,856	31,9
439,211	30,82
439,566	30,13
439,921	31,57
440,276	31
440,63	31,2
440,985	32,09
441,34	31,75
441,695	33,95
442,049	35,5
442,404	35,03
442,758	34,95
443,113	36,27
443,467	38,39
443,822	36,65
444,176	36,18
444,531	38,98
444,885	37,59
445,239	38,65
445,593	39,26
445,948	38,74
446,302	39,62
446,656	41,16
447,01	42,55
447,364	41,04
447,718	42,95
448,072	44,56
448,426	43,75
448,779	46,33
449,133	47,38
449,487	46,21
449,841	50,52
450,194	50,27
450,548	50,09
450,902	49,37
451,255	49,65
451,609	51,22
451,962	51,44
452,315	50,27
452,669	50,69
453,022	50,16
453,375	50,46
453,729	47,05
454,082	50,34
454,435	51,6
454,788	50,7
455,141	51,11
455,494	51,24
455,847	52,01
456,2	54,88
456,553	53,06
456,906	53,56
457,258	57,34
457,611	59,25
457,964	58,26
458,316	58,13
458,669	60,37
459,022	60,38
459,374	58,28
459,727	59,98
460,079	57,62
460,432	58,35
460,784	59,54
461,136	57,34
461,488	57,07
461,841	55,9
462,193	58,4
462,545	57,5
462,897	61,22
463,249	64,86
463,601	64,78
463,953	67,48
464,305	69,94
464,657	68,59
465,009	69,63
465,361	70,63
465,712	71,63
466,064	71,02
466,416	71,18
466,767	70
467,119	69,14
467,47	69,52
467,822	66,97
468,173	66,14
468,525	68,1
468,876	69,79
469,227	74,28
469,579	75,89
469,93	74,85
470,281	74,53
470,632	75,73
470,983	74,36
471,334	73,29
471,685	74,7
472,036	74,25
472,387	73,45
472,738	72,61
473,089	67,84
473,44	66,4
473,79	68,17
474,141	68,81
474,492	67,2
474,842	69,06
475,193	70,53
475,543	71,96
475,894	73,97
476,244	76,67
476,595	77,73
476,945	78,74
477,295	80,02
477,645	77,03
477,996	81,97
478,346	81,19
478,696	84,04
479,046	85,01
479,396	86,97
479,746	88,14
480,096	85,23
480,446	85,96
480,796	89,34
481,145	92,18
481,495	96,16
481,845	93,01
482,195	94,58
482,544	93,55
482,894	93,59
483,243	93,98
483,593	91,5
483,942	94,74
484,292	94,99
484,641	94,69
484,99	93,35
485,34	93,43
485,689	93,16
486,038	96,37
486,387	99,32
486,736	98,97
487,085	100,71
487,434	105,49
487,783	106,63
488,132	112,02
488,481	113,65
488,83	116,64
489,179	118,61
489,527	124,22
489,876	127,23
490,225	127,32
490,573	129,93
490,922	130,74
491,27	132,27
491,619	133,51
491,967	135,5
492,316	138,88
492,664	142,81
493,012	144,68
493,361	145,23
493,709	144,72
494,057	150,49
494,405	157,48
494,753	162,34
495,101	166,79
495,449	174,24
495,797	180,89
496,145	186,81
496,493	192,9
496,84	201,65
497,188	210,75
497,536	223,76
497,884	232,14
498,231	240,02
498,579	251,74
498,926	263,67
499,274	275,73
499,621	287,11
499,969	301,92
500,316	318,71
500,663	335,76
501,01	352,95
501,358	371,45
501,705	390,58
502,052	412,61
502,399	435,31
502,746	460,99
503,093	488,55
503,44	517,3
503,787	546,58
504,134	579,8
504,481	615,28
504,827	655,93
505,174	697,95
505,521	742,81
505,867	790,89
506,214	841,77
506,56	894,9
506,907	950,73
507,253	1009,29
507,6	1073,18
507,946	1137,2
508,292	1206,79
508,639	1277,4
508,985	1354,81
509,331	1437,17
509,677	1523,11
510,023	1610,84
510,369	1704,49
510,715	1798,32
511,061	1897,63
511,407	2000,1
511,753	2107,38
512,099	2214,44
512,444	2323,57
512,79	2430,86
513,136	2538,89
513,481	2646,53
513,827	2759,55
514,172	2868,38
514,518	2982,83
514,863	3096,88
515,209	3204,74
515,554	3309,04
515,899	3411,83
516,245	3508,44
516,59	3604,32
516,935	3696,71
517,28	3784,56
517,625	3858,6
517,97	3929,98
518,315	3987,44
518,66	4038,93
519,005	4086,65
519,35	4122,27
519,695	4153,9
520,039	4181,26
520,384	4194,44
520,729	4195,33
521,073	4192,37
521,418	4186,81
521,762	4166,49
522,107	4143,1
522,451	4107,47
522,796	4065,93
523,14	4023,71
523,484	3973,42
523,829	3920,84
524,173	3865,09
524,517	3807,45
524,861	3741,93
525,205	3671,51
525,549	3606,03
525,893	3538,26
526,237	3473,8
526,581	3406,95
526,925	3340,16
527,269	3272,75
527,612	3203,64
527,956	3134,7
528,3	3067,05
528,643	3002,91
528,987	2939,06
529,33	2879,18
529,674	2820,11
530,017	2759,92
530,36	2705,89
530,704	2647,41
531,047	2595,88
531,39	2545,4
531,733	2497,89
532,077	2451,7
532,42	2408,94
532,763	2365,82
533,106	2320,34
533,449	2280,86
533,792	2243,51
534,134	2202,22
534,477	2170,48
534,82	2136,24
535,163	2102,07
535,505	2069,71
535,848	2038,28
536,191	2004,74
536,533	1975,43
536,876	1949,41
537,218	1921,21
537,56	1894,18
537,903	1868,7
538,245	1842,04
538,587	1816
538,93	1789,61
539,272	1764,24
539,614	1742,24
539,956	1719,53
540,298	1698,96
540,64	1678,72
540,982	1660,08
541,324	1641,43
541,666	1626,16
542,007	1606,63
542,349	1589,19
542,691	1576,49
543,032	1563,29
543,374	1549,53
543,716	1539,15
544,057	1527,84
544,398	1515,84
544,74	1501,98
545,081	1490,04
545,423	1477,33
545,764	1468,59
546,105	1459,58
546,446	1448,23
546,787	1439,18
547,128	1431,53
547,469	1423,7
547,81	1418,84
548,151	1414,48
548,492	1412,91
548,833	1411,95
549,174	1414,92
549,515	1415,24
549,855	1413,81
550,196	1414,81
550,537	1416
550,877	1417,77
551,218	1419,82
551,558	1420,01
551,899	1419,36
552,239	1418,62
552,579	1417,72
552,92	1415,52
553,26	1417,43
553,6	1420,89
553,94	1424,26
554,28	1426,72
554,62	1430,44
554,96	1433,71
555,3	1438,47
555,64	1443,55
555,98	1451,02
556,32	1457,04
556,66	1461,41
556,999	1467,96
557,339	1470,84
557,679	1476,4
558,018	1485,1
558,358	1494,3
558,697	1503,65
559,037	1516,24
559,376	1528,16
559,715	1541,39
560,055	1556,88
560,394	1574,21
560,733	1590,59
561,072	1613,77
561,411	1636,86
561,75	1658,15
562,089	1681,72
562,428	1706,99
562,767	1734,27
563,106	1765,04
563,445	1797,6
563,784	1832,8
564,122	1869,88
564,461	1912,36
564,8	1954,85
565,138	2000,92
565,477	2053,5
565,815	2109,23
566,154	2167,36
566,492	2230,36
566,83	2299,02
567,169	2369,36
567,507	2450,84
567,845	2534,86
568,183	2624,68
568,521	2719,8
568,859	2816,22
569,197	2918,34
569,535	3028,73
569,873	3146,71
570,211	3268,29
570,549	3396,42
570,887	3533,07
571,224	3666,71
571,562	3810,49
571,9	3960,88
572,237	4113,77
572,575	4281,53
572,912	4451,81
573,25	4622,2
573,587	4798,34
573,924	4980,97
574,262	5165,44
574,599	5353,52
574,936	5546,05
575,273	5740,6
575,61	5933,86
575,947	6131,92
576,284	6325,9
576,621	6521,12
576,958	6717,8
577,295	6914,22
577,632	7103,39
577,969	7293,2
578,305	7480,54
578,642	7657,8
578,979	7833,26
579,315	7997,06
579,652	8152,68
579,988	8298,37
580,325	8439,69
580,661	8565,71
580,997	8677,05
581,334	8774,71
581,67	8864,14
582,006	8927,94
582,342	8988,01
582,678	9023,48
583,014	9050
583,35	9065,44
583,686	9062,58
584,022	9041,99
584,358	9008,39
584,694	8966,51
585,029	8917,66
585,365	8845,44
585,701	8766,89
586,036	8678,24
586,372	8583,26
586,707	8480,64
587,043	8363,14
587,378	8241,08
587,714	8113,91
588,049	7980,65
588,384	7841,2
588,719	7695,43
589,054	7547,81
589,39	7401,89
589,725	7248,56
590,06	7095,53
590,395	6939,21
590,729	6787,62
591,064	6633,12
591,399	6478,7
591,734	6327,59
592,069	6175,17
592,403	6025,97
592,738	5880,93
593,073	5738,63
593,407	5598,36
593,742	5460,97
594,076	5325,34
594,41	5194,08
594,745	5067,73
595,079	4940,97
595,413	4822,58
595,747	4707,98
596,081	4592,7
596,416	4479,18
596,75	4369,24
597,084	4265,22
597,418	4163,31
597,751	4064,9
598,085	3970,73
598,419	3879,99
598,753	3791,61
599,086	3706,78
599,42	3622,19
599,754	3542,79
600,087	3468
600,421	3395,35
600,754	3321,68
601,088	3250,57
601,421	3189,44
601,754	3121,58
602,088	3060,19
602,421	3002,73
602,754	2943,82
603,087	2889,01
603,42	2835,52
603,753	2781,92
604,086	2733,44
604,419	2686,98
604,752	2643,82
605,085	2596,55
605,417	2558,43
605,75	2517,79
606,083	2478,84
606,415	2441,5
606,748	2406
607,08	2370,99
607,413	2339,11
607,745	2307,51
608,078	2279,02
608,41	2251,75
608,742	2219,98
609,074	2189,99
609,407	2164,01
609,739	2137,1
610,071	2109,84
610,403	2085,19
610,735	2061,84
611,067	2039,42
611,399	2017,69
611,73	1994,84
612,062	1974,08
612,394	1955,82
612,726	1940,26
613,057	1924,57
613,389	1909,12
613,72	1897,17
614,052	1882,47
614,383	1870,61
614,715	1858,74
615,046	1845,74
615,377	1840,66
615,708	1831,68
616,04	1829,67
616,371	1820,78
616,702	1811,76
617,033	1808,09
617,364	1802,54
617,695	1800,06
618,026	1797,6
618,356	1796,3
618,687	1797,65
619,018	1794,64
619,349	1798,9
619,679	1797,32
620,01	1800,07
620,34	1804,44
620,671	1807,75
621,001	1808,73
621,332	1810,25
621,662	1814,86
621,992	1820,85
622,322	1824,05
622,653	1831,6
622,983	1829,79
623,313	1835,44
623,643	1840,79
623,973	1845,43
624,303	1851,89
624,633	1859,75
624,962	1866,46
625,292	1869,42
625,622	1872,6
625,952	1876,25
626,281	1878,68
626,611	1884,56
626,94	1887,55
627,27	1887,41
627,599	1889,02
627,929	1886,96
628,258	1888,09
628,587	1892,28
628,916	1896,25
629,246	1899,54
629,575	1899,91
629,904	1899,72
630,233	1899,17
630,562	1900,19
630,891	1901,44
631,22	1900,01
631,548	1900,05
631,877	1896,78
632,206	1894,19
632,535	1892,3
632,863	1885,94
633,192	1883,59
633,52	1876,52
633,849	1875,1
634,177	1865,02
634,506	1860,34
634,834	1854,37
635,162	1847,9
635,49	1839,19
635,819	1825,68
636,147	1814,93
636,475	1805,64
636,803	1792,38
637,131	1781,03
637,459	1764,83
637,787	1753,18
638,114	1735,43
638,442	1718,32
638,77	1699,82
639,098	1684,92
639,425	1668,96
639,753	1645,42
640,08	1622,44
640,408	1601,48
640,735	1581,78
641,062	1558,22
641,39	1534,82
641,717	1513,46
642,044	1491,04
642,371	1469,74
642,699	1444,79
643,026	1420,66
643,353	1400,08
643,68	1380,11
644,006	1356,39
644,333	1330,08
644,66	1307,56
644,987	1284,17
645,314	1261,15
645,64	1236,31
645,967	1211,1
646,293	1187,31
646,62	1162,89
646,946	1138,21
647,273	1113,27
647,599	1091,41
647,925	1067,81
648,252	1045,11
648,578	1023,15
648,904	1000,85
649,23	982,23
649,556	961,14
649,882	939,21
650,208	923,16
